Time,GPU Power (W)
0.00,-0.023040000000001726
0.01,-0.023040000000001726
0.02,-0.023040000000001726
0.03,-0.023040000000001726
0.04,-0.023040000000001726
0.05,-0.023040000000001726
0.06,-0.023040000000001726
0.07,-0.023040000000001726
0.08,-0.023040000000001726
0.09,-0.023040000000001726
0.10,-0.023040000000001726
0.11,-0.023040000000001726
0.12,-0.023040000000001726
0.13,-0.023040000000001726
0.14,-0.023040000000001726
0.15,-0.023040000000001726
0.16,-0.023040000000001726
0.17,-0.023040000000001726
0.18,-0.023040000000001726
0.20,-0.023040000000001726
0.21,-0.023040000000001726
0.22,-0.023040000000001726
0.23,-0.023040000000001726
0.24,-0.023040000000001726
0.25,-0.023040000000001726
0.26,-0.023040000000001726
0.27,-0.023040000000001726
0.28,-0.023040000000001726
0.29,-0.023040000000001726
0.30,-0.023040000000001726
0.31,-0.023040000000001726
0.32,-0.023040000000001726
0.33,-0.023040000000001726
0.34,-0.023040000000001726
0.35,-0.023040000000001726
0.36,-0.023040000000001726
0.37,-0.023040000000001726
0.38,-0.023040000000001726
0.39,-0.023040000000001726
0.40,-0.023040000000001726
0.41,-0.023040000000001726
0.42,-0.023040000000001726
0.43,-0.023040000000001726
0.44,-0.023040000000001726
0.45,-0.023040000000001726
0.46,-0.023040000000001726
0.47,-0.023040000000001726
0.48,-0.023040000000001726
0.49,-0.023040000000001726
0.50,-0.023040000000001726
0.51,-0.023040000000001726
0.52,-0.023040000000001726
0.53,-0.023040000000001726
0.54,-0.023040000000001726
0.55,-0.023040000000001726
0.56,-0.023040000000001726
0.58,-0.023040000000001726
0.59,-0.023040000000001726
0.60,-0.023040000000001726
0.61,-0.023040000000001726
0.62,-0.023040000000001726
0.63,-0.023040000000001726
0.64,-0.023040000000001726
0.65,-0.023040000000001726
0.66,-0.023040000000001726
0.67,-0.023040000000001726
0.68,-0.023040000000001726
0.69,-0.023040000000001726
0.70,-0.023040000000001726
0.71,-0.023040000000001726
0.72,-0.023040000000001726
0.73,-0.023040000000001726
0.74,-0.023040000000001726
0.75,-0.023040000000001726
0.76,-0.023040000000001726
0.77,-0.023040000000001726
0.78,-0.023040000000001726
0.79,-0.023040000000001726
0.80,-0.023040000000001726
0.81,-0.023040000000001726
0.82,-0.023040000000001726
0.83,-0.023040000000001726
0.84,-0.023040000000001726
0.85,-0.023040000000001726
0.86,-0.023040000000001726
0.87,-0.023040000000001726
0.88,0.0729599999999948
0.89,0.0729599999999948
0.90,0.0729599999999948
0.91,0.0729599999999948
0.92,0.0729599999999948
0.93,0.0729599999999948
0.94,0.0729599999999948
0.95,0.0729599999999948
0.97,0.0729599999999948
0.98,-0.023040000000001726
0.99,-0.023040000000001726
1.00,-0.023040000000001726
1.01,-0.023040000000001726
1.02,-0.023040000000001726
1.03,-0.023040000000001726
1.04,-0.023040000000001726
1.05,-0.023040000000001726
1.06,-0.023040000000001726
1.07,-0.023040000000001726
1.08,-0.023040000000001726
1.09,-0.023040000000001726
1.10,-0.023040000000001726
1.11,-0.023040000000001726
1.12,-0.023040000000001726
1.13,-0.023040000000001726
1.14,-0.023040000000001726
1.15,-0.023040000000001726
1.16,-0.023040000000001726
1.17,-0.023040000000001726
1.18,-0.023040000000001726
1.19,-0.023040000000001726
1.20,-0.023040000000001726
1.21,-0.023040000000001726
1.22,-0.023040000000001726
1.23,-0.023040000000001726
1.24,-0.023040000000001726
1.25,-0.023040000000001726
1.26,-0.023040000000001726
1.27,-0.023040000000001726
1.28,-0.023040000000001726
1.29,-0.023040000000001726
1.30,-0.023040000000001726
1.31,-0.023040000000001726
1.32,-0.023040000000001726
1.33,-0.023040000000001726
1.34,-0.023040000000001726
1.36,-0.023040000000001726
1.37,-0.023040000000001726
1.38,-0.023040000000001726
1.39,-0.023040000000001726
1.40,-0.023040000000001726
1.41,-0.023040000000001726
1.42,-0.023040000000001726
1.43,-0.023040000000001726
1.44,-0.023040000000001726
1.45,-0.023040000000001726
1.46,-0.023040000000001726
1.47,-0.023040000000001726
1.48,-0.023040000000001726
1.49,-0.023040000000001726
1.50,-0.023040000000001726
1.51,-0.023040000000001726
1.52,-0.023040000000001726
1.53,-0.023040000000001726
1.54,-0.023040000000001726
1.55,-0.023040000000001726
1.56,-0.023040000000001726
1.57,-0.023040000000001726
1.58,-0.023040000000001726
1.59,-0.023040000000001726
1.60,-0.023040000000001726
1.61,-0.023040000000001726
1.62,-0.023040000000001726
1.63,-0.023040000000001726
1.64,-0.023040000000001726
1.65,-0.023040000000001726
1.66,-0.023040000000001726
1.67,-0.023040000000001726
1.68,-0.023040000000001726
1.69,-0.023040000000001726
1.70,-0.023040000000001726
1.71,-0.023040000000001726
1.72,-0.023040000000001726
1.74,-0.023040000000001726
1.75,-0.023040000000001726
1.76,-0.023040000000001726
1.77,-0.023040000000001726
1.78,-0.023040000000001726
1.79,-0.023040000000001726
1.80,-0.023040000000001726
1.81,-0.023040000000001726
1.82,-0.023040000000001726
1.83,-0.023040000000001726
1.84,-0.023040000000001726
1.85,-0.023040000000001726
1.86,-0.023040000000001726
1.87,-0.023040000000001726
1.88,-0.023040000000001726
1.89,-0.023040000000001726
1.90,-0.023040000000001726
1.91,-0.023040000000001726
1.92,-0.023040000000001726
1.93,-0.023040000000001726
1.94,-0.023040000000001726
1.95,-0.023040000000001726
1.96,-0.023040000000001726
1.97,-0.023040000000001726
1.98,-0.023040000000001726
1.99,-0.023040000000001726
2.00,-0.023040000000001726
2.01,-0.023040000000001726
2.02,-0.023040000000001726
2.03,-0.023040000000001726
2.04,-0.023040000000001726
2.05,-0.023040000000001726
2.06,-0.023040000000001726
2.07,-0.023040000000001726
2.08,-0.023040000000001726
2.09,-0.023040000000001726
2.10,-0.023040000000001726
2.11,-0.023040000000001726
2.12,-0.023040000000001726
2.13,-0.023040000000001726
2.14,-0.023040000000001726
2.16,-0.023040000000001726
2.17,-0.023040000000001726
2.18,-0.023040000000001726
2.19,-0.023040000000001726
2.20,-0.023040000000001726
2.21,-0.023040000000001726
2.22,-0.023040000000001726
2.23,-0.023040000000001726
2.24,-0.023040000000001726
2.25,-0.023040000000001726
2.26,-0.023040000000001726
2.27,-0.023040000000001726
2.28,-0.023040000000001726
2.29,-0.023040000000001726
2.30,-0.023040000000001726
2.31,-0.023040000000001726
2.32,-0.023040000000001726
2.33,-0.023040000000001726
2.34,-0.023040000000001726
2.35,-0.023040000000001726
2.36,-0.023040000000001726
2.37,-0.023040000000001726
2.38,-0.023040000000001726
2.39,-0.023040000000001726
2.40,-0.023040000000001726
2.41,-0.023040000000001726
2.42,-0.023040000000001726
2.43,-0.023040000000001726
2.44,-0.023040000000001726
2.45,-0.023040000000001726
2.46,-0.023040000000001726
2.47,-0.023040000000001726
2.48,-0.023040000000001726
2.49,-0.023040000000001726
2.50,-0.023040000000001726
2.51,-0.023040000000001726
2.52,-0.023040000000001726
2.54,-0.023040000000001726
2.55,-0.023040000000001726
2.56,-0.023040000000001726
2.57,-0.023040000000001726
2.58,-0.023040000000001726
2.59,-0.023040000000001726
2.60,-0.023040000000001726
2.61,-0.023040000000001726
2.62,-0.023040000000001726
2.63,-0.023040000000001726
2.64,-0.023040000000001726
2.65,-0.023040000000001726
2.66,-0.023040000000001726
2.67,-0.023040000000001726
2.68,-0.023040000000001726
2.69,-0.023040000000001726
2.70,-0.023040000000001726
2.71,-0.023040000000001726
2.72,-0.023040000000001726
2.73,-0.023040000000001726
2.74,-0.023040000000001726
2.75,-0.023040000000001726
2.76,-0.023040000000001726
2.77,-0.023040000000001726
2.78,-0.023040000000001726
2.79,-0.023040000000001726
2.80,-0.023040000000001726
2.81,-0.023040000000001726
2.82,-0.023040000000001726
2.83,-0.023040000000001726
2.84,-0.023040000000001726
2.85,-0.023040000000001726
2.86,-0.023040000000001726
2.87,-0.023040000000001726
2.88,-0.11904000000000536
2.89,-0.11904000000000536
2.90,-0.11904000000000536
2.92,-0.11904000000000536
2.93,-0.11904000000000536
2.94,-0.11904000000000536
2.95,-0.11904000000000536
2.96,-0.11904000000000536
2.97,-0.11904000000000536
2.98,-0.11904000000000536
2.99,-0.023040000000001726
3.00,-0.023040000000001726
3.01,-0.023040000000001726
3.02,-0.023040000000001726
3.03,-0.023040000000001726
3.04,-0.023040000000001726
3.05,-0.023040000000001726
3.06,-0.023040000000001726
3.07,-0.023040000000001726
3.08,-0.023040000000001726
3.09,-0.023040000000001726
3.10,-0.023040000000001726
3.11,-0.023040000000001726
3.12,-0.023040000000001726
3.13,-0.023040000000001726
3.14,-0.023040000000001726
3.15,-0.023040000000001726
3.16,-0.023040000000001726
3.17,-0.023040000000001726
3.18,-0.023040000000001726
3.19,-0.023040000000001726
3.20,-0.023040000000001726
3.21,-0.023040000000001726
3.22,-0.023040000000001726
3.23,-0.023040000000001726
3.24,-0.023040000000001726
3.25,-0.023040000000001726
3.26,-0.023040000000001726
3.27,-0.023040000000001726
3.28,-0.023040000000001726
3.29,-0.023040000000001726
3.30,-0.023040000000001726
3.32,-0.023040000000001726
3.33,-0.023040000000001726
3.34,-0.023040000000001726
3.35,-0.023040000000001726
3.36,-0.023040000000001726
3.37,-0.023040000000001726
3.38,-0.023040000000001726
3.39,-0.023040000000001726
3.40,-0.023040000000001726
3.41,-0.023040000000001726
3.42,-0.023040000000001726
3.43,-0.023040000000001726
3.44,-0.023040000000001726
3.45,-0.023040000000001726
3.46,-0.023040000000001726
3.47,-0.023040000000001726
3.48,-0.023040000000001726
3.49,-0.023040000000001726
3.50,-0.023040000000001726
3.51,-0.023040000000001726
3.52,-0.023040000000001726
3.53,-0.023040000000001726
3.54,-0.023040000000001726
3.55,-0.023040000000001726
3.56,-0.023040000000001726
3.57,-0.023040000000001726
3.58,-0.023040000000001726
3.59,-0.023040000000001726
3.60,-0.023040000000001726
3.61,-0.023040000000001726
3.62,-0.023040000000001726
3.63,-0.023040000000001726
3.64,-0.023040000000001726
3.65,-0.023040000000001726
3.66,-0.023040000000001726
3.67,-0.023040000000001726
3.68,-0.11904000000000536
3.69,-0.11904000000000536
3.71,-0.11904000000000536
3.72,-0.11904000000000536
3.73,-0.11904000000000536
3.74,-0.11904000000000536
3.75,-0.11904000000000536
3.76,-0.11904000000000536
3.77,-0.11904000000000536
3.78,-0.11904000000000536
3.79,-0.023040000000001726
3.80,-0.023040000000001726
3.81,-0.023040000000001726
3.82,-0.023040000000001726
3.83,-0.023040000000001726
3.84,-0.023040000000001726
3.85,-0.023040000000001726
3.86,-0.023040000000001726
3.87,-0.023040000000001726
3.88,-0.12004000000000303
3.89,-0.12004000000000303
3.90,-0.12004000000000303
3.91,-0.12004000000000303
3.92,-0.12004000000000303
3.93,-0.12004000000000303
3.94,-0.12004000000000303
3.95,-0.12004000000000303
3.96,-0.12004000000000303
3.97,-0.12004000000000303
3.98,-0.023040000000001726
3.99,-0.023040000000001726
4.00,-0.023040000000001726
4.01,-0.023040000000001726
4.02,-0.023040000000001726
4.03,-0.023040000000001726
4.04,-0.023040000000001726
4.05,-0.023040000000001726
4.06,-0.023040000000001726
4.07,-0.023040000000001726
4.08,-0.023040000000001726
4.10,-0.023040000000001726
4.11,-0.023040000000001726
4.12,-0.023040000000001726
4.13,-0.023040000000001726
4.14,-0.023040000000001726
4.15,-0.023040000000001726
4.16,-0.023040000000001726
4.17,-0.023040000000001726
4.18,-0.023040000000001726
4.19,-0.023040000000001726
4.20,-0.023040000000001726
4.21,-0.023040000000001726
4.22,-0.023040000000001726
4.23,-0.023040000000001726
4.24,-0.023040000000001726
4.25,-0.023040000000001726
4.26,-0.023040000000001726
4.27,-0.023040000000001726
4.28,-0.023040000000001726
4.29,-0.023040000000001726
4.30,-0.023040000000001726
4.31,-0.023040000000001726
4.32,-0.023040000000001726
4.33,-0.023040000000001726
4.34,-0.023040000000001726
4.35,-0.023040000000001726
4.36,-0.023040000000001726
4.37,-0.023040000000001726
4.38,-0.023040000000001726
4.39,-0.023040000000001726
4.40,-0.023040000000001726
4.41,-0.023040000000001726
4.42,-0.023040000000001726
4.43,-0.023040000000001726
4.44,-0.023040000000001726
4.45,-0.023040000000001726
4.46,-0.023040000000001726
4.48,-0.023040000000001726
4.49,-0.12004000000000303
4.50,-0.12004000000000303
4.51,-0.12004000000000303
4.52,-0.12004000000000303
4.53,-0.12004000000000303
4.54,-0.12004000000000303
4.55,-0.12004000000000303
4.56,-0.12004000000000303
4.57,-0.12004000000000303
4.58,-0.12004000000000303
4.59,-0.023040000000001726
4.60,-0.023040000000001726
4.61,-0.023040000000001726
4.62,-0.023040000000001726
4.63,-0.023040000000001726
4.64,-0.023040000000001726
4.65,-0.023040000000001726
4.66,-0.023040000000001726
4.67,-0.023040000000001726
4.68,-0.023040000000001726
4.69,-0.023040000000001726
4.70,-0.023040000000001726
4.71,-0.023040000000001726
4.72,-0.023040000000001726
4.73,-0.023040000000001726
4.74,-0.023040000000001726
4.75,-0.023040000000001726
4.76,-0.023040000000001726
4.77,-0.023040000000001726
4.78,-0.023040000000001726
4.79,-0.023040000000001726
4.80,-0.023040000000001726
4.81,-0.023040000000001726
4.82,-0.023040000000001726
4.83,-0.023040000000001726
4.84,-0.023040000000001726
4.86,-0.023040000000001726
4.87,-0.023040000000001726
4.88,-0.023040000000001726
4.89,-0.023040000000001726
4.90,-0.023040000000001726
4.91,-0.023040000000001726
4.92,-0.023040000000001726
4.93,-0.023040000000001726
4.94,-0.023040000000001726
4.95,-0.023040000000001726
4.96,-0.023040000000001726
4.97,-0.023040000000001726
4.98,-0.023040000000001726
4.99,-0.023040000000001726
5.00,-0.023040000000001726
5.01,-0.023040000000001726
5.02,-0.023040000000001726
5.03,-0.023040000000001726
5.04,-0.023040000000001726
5.05,-0.023040000000001726
5.06,-0.023040000000001726
5.07,-0.023040000000001726
5.08,-0.023040000000001726
5.09,-0.11904000000000536
5.10,-0.11904000000000536
5.11,-0.11904000000000536
5.12,-0.11904000000000536
5.13,-0.11904000000000536
5.14,-0.11904000000000536
5.15,-0.11904000000000536
5.16,-0.11904000000000536
5.17,-0.11904000000000536
5.18,-0.11904000000000536
5.19,-0.11904000000000536
5.20,-0.11904000000000536
5.21,-0.11904000000000536
5.22,-0.11904000000000536
5.23,-0.11904000000000536
5.25,-0.11904000000000536
5.26,-0.11904000000000536
5.27,-0.11904000000000536
5.28,-0.11904000000000536
5.29,-0.11904000000000536
5.30,-0.11904000000000536
5.31,-0.11904000000000536
5.32,-0.11904000000000536
5.33,-0.11904000000000536
5.34,-0.11904000000000536
5.35,-0.11904000000000536
5.36,-0.11904000000000536
5.37,-0.11904000000000536
5.38,-0.11904000000000536
5.39,-0.023040000000001726
5.40,-0.023040000000001726
5.41,-0.023040000000001726
5.42,-0.023040000000001726
5.43,-0.023040000000001726
5.44,-0.023040000000001726
5.45,-0.023040000000001726
5.46,-0.023040000000001726
5.47,-0.023040000000001726
5.48,-0.023040000000001726
5.49,-0.023040000000001726
5.50,-0.023040000000001726
5.51,-0.023040000000001726
5.52,-0.023040000000001726
5.53,-0.023040000000001726
5.54,-0.023040000000001726
5.55,-0.023040000000001726
5.56,-0.023040000000001726
5.57,-0.023040000000001726
5.58,-0.12004000000000303
5.59,-0.12004000000000303
5.60,-0.12004000000000303
5.61,-0.12004000000000303
5.62,-0.12004000000000303
5.64,-0.12004000000000303
5.65,-0.12004000000000303
5.66,-0.12004000000000303
5.67,-0.12004000000000303
5.68,-0.12004000000000303
5.69,-0.12004000000000303
5.70,-0.12004000000000303
5.71,-0.12004000000000303
5.72,-0.12004000000000303
5.73,-0.12004000000000303
5.74,-0.12004000000000303
5.75,-0.12004000000000303
5.76,-0.12004000000000303
5.77,-0.12004000000000303
5.78,-0.12004000000000303
5.79,-0.12004000000000303
5.80,-0.12004000000000303
5.81,-0.12004000000000303
5.82,-0.12004000000000303
5.83,-0.12004000000000303
5.84,-0.12004000000000303
5.85,-0.12004000000000303
5.86,-0.12004000000000303
5.87,-0.12004000000000303
5.88,-0.12004000000000303
5.89,-0.11904000000000536
5.90,-0.11904000000000536
5.91,-0.11904000000000536
5.92,-0.11904000000000536
5.93,-0.11904000000000536
5.94,-0.11904000000000536
5.95,-0.11904000000000536
5.96,-0.11904000000000536
5.97,-0.11904000000000536
5.98,-0.12004000000000303
5.99,-0.12004000000000303
6.00,-0.12004000000000303
6.01,-0.12004000000000303
6.02,-0.12004000000000303
6.03,-0.12004000000000303
6.04,-0.12004000000000303
6.06,-0.12004000000000303
6.07,-0.12004000000000303
6.08,-0.12004000000000303
6.09,-0.11904000000000536
6.10,-0.11904000000000536
6.11,-0.11904000000000536
6.12,-0.11904000000000536
6.13,-0.11904000000000536
6.14,-0.11904000000000536
6.15,-0.11904000000000536
6.16,-0.11904000000000536
6.17,-0.11904000000000536
6.18,-0.11904000000000536
6.19,-0.023040000000001726
6.20,-0.023040000000001726
6.21,-0.023040000000001726
6.22,-0.023040000000001726
6.23,-0.023040000000001726
6.24,-0.023040000000001726
6.25,-0.023040000000001726
6.26,-0.023040000000001726
6.27,-0.023040000000001726
6.28,-0.023040000000001726
6.29,-0.023040000000001726
6.30,-0.023040000000001726
6.31,-0.023040000000001726
6.32,-0.023040000000001726
6.33,-0.023040000000001726
6.34,-0.023040000000001726
6.35,-0.023040000000001726
6.36,-0.023040000000001726
6.37,-0.023040000000001726
6.38,-0.023040000000001726
6.39,-0.023040000000001726
6.40,-0.023040000000001726
6.41,-0.023040000000001726
6.42,-0.023040000000001726
6.43,-0.023040000000001726
6.45,-0.023040000000001726
6.46,-0.023040000000001726
6.47,-0.023040000000001726
6.48,-0.023040000000001726
6.49,-0.023040000000001726
6.50,-0.023040000000001726
6.51,-0.023040000000001726
6.52,-0.023040000000001726
6.53,-0.023040000000001726
6.54,-0.023040000000001726
6.55,-0.023040000000001726
6.56,-0.023040000000001726
6.57,-0.023040000000001726
6.58,-0.023040000000001726
6.59,-0.023040000000001726
6.60,-0.023040000000001726
6.61,-0.023040000000001726
6.62,-0.023040000000001726
6.63,-0.023040000000001726
6.64,-0.023040000000001726
6.65,-0.023040000000001726
6.66,-0.023040000000001726
6.67,-0.023040000000001726
6.68,-0.023040000000001726
6.69,-0.11904000000000536
6.70,-0.11904000000000536
6.71,-0.11904000000000536
6.72,-0.11904000000000536
6.73,-0.11904000000000536
6.74,-0.11904000000000536
6.75,-0.11904000000000536
6.76,-0.11904000000000536
6.77,-0.11904000000000536
6.78,-0.11904000000000536
6.79,-0.11904000000000536
6.80,-0.11904000000000536
6.81,-0.11904000000000536
6.83,-0.11904000000000536
6.84,-0.11904000000000536
6.85,-0.11904000000000536
6.86,-0.11904000000000536
6.87,-0.11904000000000536
6.88,-0.11904000000000536
6.89,-0.11904000000000536
6.90,-0.11904000000000536
6.91,-0.11904000000000536
6.92,-0.11904000000000536
6.93,-0.11904000000000536
6.94,-0.11904000000000536
6.95,-0.11904000000000536
6.96,-0.11904000000000536
6.97,-0.11904000000000536
6.98,-0.11904000000000536
6.99,-0.11904000000000536
7.00,-0.11904000000000536
7.01,-0.11904000000000536
7.02,-0.11904000000000536
7.03,-0.11904000000000536
7.04,-0.11904000000000536
7.05,-0.11904000000000536
7.06,-0.11904000000000536
7.07,-0.11904000000000536
7.08,-0.11904000000000536
7.09,-0.12004000000000303
7.10,-0.12004000000000303
7.11,-0.12004000000000303
7.12,-0.12004000000000303
7.13,-0.12004000000000303
7.14,-0.12004000000000303
7.15,-0.12004000000000303
7.16,-0.12004000000000303
7.17,-0.12004000000000303
7.18,-0.023040000000001726
7.19,-0.023040000000001726
7.20,-0.023040000000001726
7.22,-0.023040000000001726
7.23,-0.023040000000001726
7.24,-0.023040000000001726
7.25,-0.023040000000001726
7.26,-0.023040000000001726
7.27,-0.023040000000001726
7.28,-0.023040000000001726
7.29,-0.11904000000000536
7.30,-0.11904000000000536
7.31,-0.11904000000000536
7.32,-0.11904000000000536
7.33,-0.11904000000000536
7.34,-0.11904000000000536
7.35,-0.11904000000000536
7.36,-0.11904000000000536
7.37,-0.11904000000000536
7.38,-0.11904000000000536
7.39,-0.11904000000000536
7.40,-0.11904000000000536
7.41,-0.11904000000000536
7.42,-0.11904000000000536
7.43,-0.11904000000000536
7.44,-0.11904000000000536
7.45,-0.11904000000000536
7.46,-0.11904000000000536
7.47,-0.11904000000000536
7.48,-0.11904000000000536
7.49,-0.11904000000000536
7.50,-0.11904000000000536
7.51,-0.11904000000000536
7.52,-0.11904000000000536
7.53,-0.11904000000000536
7.54,-0.11904000000000536
7.55,-0.11904000000000536
7.56,-0.11904000000000536
7.57,-0.11904000000000536
7.58,-0.11904000000000536
7.60,-0.11904000000000536
7.61,-0.11904000000000536
7.62,-0.11904000000000536
7.63,-0.11904000000000536
7.64,-0.11904000000000536
7.65,-0.11904000000000536
7.66,-0.11904000000000536
7.67,-0.11904000000000536
7.68,-0.11904000000000536
7.69,-0.11904000000000536
7.70,-0.11904000000000536
7.71,-0.11904000000000536
7.72,-0.11904000000000536
7.73,-0.11904000000000536
7.74,-0.11904000000000536
7.75,-0.11904000000000536
7.76,-0.11904000000000536
7.77,-0.11904000000000536
7.78,-0.11904000000000536
7.79,-0.12004000000000303
7.80,-0.12004000000000303
7.81,-0.12004000000000303
7.82,-0.12004000000000303
7.83,-0.12004000000000303
7.84,-0.12004000000000303
7.85,-0.12004000000000303
7.86,-0.12004000000000303
7.87,-0.12004000000000303
7.88,-0.12004000000000303
7.89,-0.023040000000001726
7.90,-0.023040000000001726
7.91,-0.023040000000001726
7.92,-0.023040000000001726
7.93,-0.023040000000001726
7.94,-0.023040000000001726
7.95,-0.023040000000001726
7.96,-0.023040000000001726
7.98,-0.023040000000001726
7.99,-0.023040000000001726
8.00,-0.11904000000000536
8.01,-0.11904000000000536
8.02,-0.11904000000000536
8.03,-0.11904000000000536
8.04,-0.11904000000000536
8.05,-0.11904000000000536
8.06,-0.11904000000000536
8.07,-0.11904000000000536
8.08,-0.11904000000000536
8.09,-0.11904000000000536
8.10,-0.11904000000000536
8.11,-0.11904000000000536
8.12,-0.11904000000000536
8.13,-0.11904000000000536
8.14,-0.11904000000000536
8.15,-0.11904000000000536
8.16,-0.11904000000000536
8.17,-0.11904000000000536
8.18,-0.11904000000000536
8.19,-0.023040000000001726
8.20,-0.023040000000001726
8.21,-0.023040000000001726
8.22,-0.023040000000001726
8.23,-0.023040000000001726
8.24,-0.023040000000001726
8.25,-0.023040000000001726
8.26,-0.023040000000001726
8.27,-0.023040000000001726
8.28,-0.023040000000001726
8.29,-0.023040000000001726
8.30,-0.023040000000001726
8.31,-0.023040000000001726
8.32,-0.023040000000001726
8.33,-0.023040000000001726
8.34,-0.023040000000001726
8.35,-0.023040000000001726
8.37,-0.023040000000001726
8.38,-0.023040000000001726
8.39,-0.023040000000001726
8.40,-0.023040000000001726
8.41,-0.023040000000001726
8.42,-0.023040000000001726
8.43,-0.023040000000001726
8.44,-0.023040000000001726
8.45,-0.023040000000001726
8.46,-0.023040000000001726
8.47,-0.023040000000001726
8.48,-0.023040000000001726
8.49,-0.023040000000001726
8.50,-0.023040000000001726
8.51,-0.023040000000001726
8.52,-0.023040000000001726
8.53,-0.023040000000001726
8.54,-0.023040000000001726
8.55,-0.023040000000001726
8.56,-0.023040000000001726
8.57,-0.023040000000001726
8.58,-0.023040000000001726
8.59,-0.023040000000001726
8.60,-0.023040000000001726
8.61,-0.023040000000001726
8.62,-0.023040000000001726
8.63,-0.023040000000001726
8.64,-0.023040000000001726
8.65,-0.023040000000001726
8.66,-0.023040000000001726
8.67,-0.023040000000001726
8.68,-0.023040000000001726
8.69,-0.023040000000001726
8.70,-0.023040000000001726
8.71,-0.023040000000001726
8.72,-0.023040000000001726
8.73,-0.023040000000001726
8.74,-0.023040000000001726
8.76,-0.023040000000001726
8.77,-0.023040000000001726
8.78,-0.023040000000001726
8.79,-0.023040000000001726
8.80,-0.11904000000000536
8.81,-0.11904000000000536
8.82,-0.11904000000000536
8.83,-0.11904000000000536
8.84,-0.11904000000000536
8.85,-0.11904000000000536
8.86,-0.11904000000000536
8.87,-0.11904000000000536
8.88,-0.11904000000000536
8.89,-0.11904000000000536
8.90,-0.11904000000000536
8.91,-0.11904000000000536
8.92,-0.11904000000000536
8.93,-0.11904000000000536
8.94,-0.11904000000000536
8.95,-0.11904000000000536
8.96,-0.11904000000000536
8.97,-0.11904000000000536
8.98,-0.11904000000000536
8.99,-0.023040000000001726
9.00,-0.023040000000001726
9.01,-0.023040000000001726
9.02,-0.023040000000001726
9.03,-0.023040000000001726
9.04,-0.023040000000001726
9.05,-0.023040000000001726
9.06,-0.023040000000001726
9.07,-0.023040000000001726
9.08,-0.023040000000001726
9.09,-0.023040000000001726
9.10,-0.023040000000001726
9.11,-0.023040000000001726
9.12,-0.023040000000001726
9.13,-0.023040000000001726
9.15,-0.023040000000001726
9.16,-0.023040000000001726
9.17,-0.023040000000001726
9.18,-0.023040000000001726
9.19,-0.023040000000001726
9.20,-0.11904000000000536
9.21,-0.11904000000000536
9.22,-0.11904000000000536
9.23,-0.11904000000000536
9.24,-0.11904000000000536
9.25,-0.11904000000000536
9.26,-0.11904000000000536
9.27,-0.11904000000000536
9.28,-0.11904000000000536
9.29,-0.023040000000001726
9.30,-0.023040000000001726
9.31,-0.023040000000001726
9.32,-0.023040000000001726
9.33,-0.023040000000001726
9.34,-0.023040000000001726
9.35,-0.023040000000001726
9.36,-0.023040000000001726
9.37,-0.023040000000001726
9.38,-0.023040000000001726
9.39,-0.023040000000001726
9.40,-0.023040000000001726
9.41,-0.023040000000001726
9.42,-0.023040000000001726
9.43,-0.023040000000001726
9.44,-0.023040000000001726
9.45,-0.023040000000001726
9.46,-0.023040000000001726
9.47,-0.023040000000001726
9.48,-0.023040000000001726
9.49,-0.023040000000001726
9.50,-0.023040000000001726
9.51,-0.023040000000001726
9.53,-0.023040000000001726
9.54,-0.023040000000001726
9.55,-0.023040000000001726
9.56,-0.023040000000001726
9.57,-0.023040000000001726
9.58,-0.023040000000001726
9.59,-0.023040000000001726
9.60,-0.023040000000001726
9.61,-0.023040000000001726
9.62,-0.023040000000001726
9.63,-0.023040000000001726
9.64,-0.023040000000001726
9.65,-0.023040000000001726
9.66,-0.023040000000001726
9.67,-0.023040000000001726
9.68,-0.023040000000001726
9.69,-0.023040000000001726
9.70,-0.11904000000000536
9.71,-0.11904000000000536
9.72,-0.11904000000000536
9.73,-0.11904000000000536
9.74,-0.11904000000000536
9.75,-0.11904000000000536
9.76,-0.11904000000000536
9.77,-0.11904000000000536
9.78,-0.11904000000000536
9.79,-0.11904000000000536
9.80,-0.11904000000000536
9.81,-0.11904000000000536
9.82,-0.11904000000000536
9.83,-0.11904000000000536
9.84,-0.11904000000000536
9.85,-0.11904000000000536
9.86,-0.11904000000000536
9.87,-0.11904000000000536
9.88,-0.11904000000000536
9.89,-0.11904000000000536
9.91,-0.11904000000000536
9.92,-0.11904000000000536
9.93,-0.11904000000000536
9.94,-0.11904000000000536
9.95,-0.11904000000000536
9.96,-0.11904000000000536
9.97,-0.11904000000000536
9.98,-0.11904000000000536
9.99,-0.11904000000000536
10.00,-0.11904000000000536
10.01,-0.11904000000000536
10.02,-0.11904000000000536
10.03,-0.11904000000000536
10.04,-0.11904000000000536
10.05,-0.11904000000000536
10.06,-0.11904000000000536
10.07,-0.11904000000000536
10.08,-0.11904000000000536
10.09,-0.11904000000000536
10.10,-0.11904000000000536
10.11,-0.11904000000000536
10.12,-0.11904000000000536
10.13,-0.11904000000000536
10.14,-0.11904000000000536
10.15,-0.11904000000000536
10.16,-0.11904000000000536
10.17,-0.11904000000000536
10.18,-0.11904000000000536
10.19,-0.11904000000000536
10.20,-0.11904000000000536
10.21,-0.11904000000000536
10.22,-0.11904000000000536
10.23,-0.11904000000000536
10.24,-0.11904000000000536
10.25,-0.11904000000000536
10.26,-0.11904000000000536
10.27,-0.11904000000000536
10.28,-0.11904000000000536
10.29,-0.11904000000000536
10.30,-0.11904000000000536
10.32,-0.11904000000000536
10.33,-0.11904000000000536
10.34,-0.11904000000000536
10.35,-0.11904000000000536
10.36,-0.11904000000000536
10.37,-0.11904000000000536
10.38,-0.11904000000000536
10.39,-0.11904000000000536
10.40,-0.11904000000000536
10.41,-0.11904000000000536
10.42,-0.11904000000000536
10.43,-0.11904000000000536
10.44,-0.11904000000000536
10.45,-0.11904000000000536
10.46,-0.11904000000000536
10.47,-0.11904000000000536
10.48,-0.11904000000000536
10.49,-0.11904000000000536
10.50,-0.11904000000000536
10.51,-0.11904000000000536
10.52,-0.11904000000000536
10.53,-0.11904000000000536
10.54,-0.11904000000000536
10.55,-0.11904000000000536
10.56,-0.11904000000000536
10.57,-0.11904000000000536
10.58,-0.11904000000000536
10.59,-0.023040000000001726
10.60,-0.023040000000001726
10.61,-0.023040000000001726
10.62,-0.023040000000001726
10.63,-0.023040000000001726
10.64,-0.023040000000001726
10.65,-0.023040000000001726
10.66,-0.023040000000001726
10.67,-0.023040000000001726
10.68,-0.023040000000001726
10.69,-0.023040000000001726
10.71,-0.023040000000001726
10.72,-0.023040000000001726
10.73,-0.023040000000001726
10.74,-0.023040000000001726
10.75,-0.023040000000001726
10.76,-0.023040000000001726
10.77,-0.023040000000001726
10.78,-0.023040000000001726
10.79,-0.023040000000001726
10.80,-0.11904000000000536
10.81,-0.11904000000000536
10.82,-0.11904000000000536
10.83,-0.11904000000000536
10.84,-0.11904000000000536
10.85,-0.11904000000000536
10.86,-0.11904000000000536
10.87,-0.11904000000000536
10.88,-0.11904000000000536
10.89,-0.11904000000000536
10.90,-0.11904000000000536
10.91,-0.11904000000000536
10.92,-0.11904000000000536
10.93,-0.11904000000000536
10.94,-0.11904000000000536
10.95,-0.11904000000000536
10.96,-0.11904000000000536
10.97,-0.11904000000000536
10.98,-0.11904000000000536
10.99,-0.11904000000000536
11.00,-0.11904000000000536
11.01,-0.11904000000000536
11.02,-0.11904000000000536
11.03,-0.11904000000000536
11.04,-0.11904000000000536
11.05,-0.11904000000000536
11.06,-0.11904000000000536
11.07,-0.11904000000000536
11.09,-0.11904000000000536
11.10,-0.11904000000000536
11.11,-0.11904000000000536
11.12,-0.11904000000000536
11.13,-0.11904000000000536
11.14,-0.11904000000000536
11.15,-0.11904000000000536
11.16,-0.11904000000000536
11.17,-0.11904000000000536
11.18,-0.11904000000000536
11.19,-0.11904000000000536
11.20,-0.11904000000000536
11.21,-0.11904000000000536
11.22,-0.11904000000000536
11.23,-0.11904000000000536
11.24,-0.11904000000000536
11.25,-0.11904000000000536
11.26,-0.11904000000000536
11.27,-0.11904000000000536
11.28,-0.11904000000000536
11.29,-0.11904000000000536
11.30,-0.11904000000000536
11.31,-0.11904000000000536
11.32,-0.11904000000000536
11.33,-0.11904000000000536
11.34,-0.11904000000000536
11.35,-0.11904000000000536
11.36,-0.11904000000000536
11.37,-0.11904000000000536
11.38,-0.11904000000000536
11.39,-0.11904000000000536
11.40,-0.11904000000000536
11.41,-0.11904000000000536
11.42,-0.11904000000000536
11.43,-0.11904000000000536
11.44,-0.11904000000000536
11.45,-0.11904000000000536
11.47,-0.11904000000000536
11.48,-0.11904000000000536
11.49,-0.11904000000000536
11.50,-0.11904000000000536
11.51,-0.11904000000000536
11.52,-0.11904000000000536
11.53,-0.11904000000000536
11.54,-0.11904000000000536
11.55,-0.11904000000000536
11.56,-0.11904000000000536
11.57,-0.11904000000000536
11.58,-0.11904000000000536
11.59,-0.11904000000000536
11.60,-0.11904000000000536
11.61,-0.11904000000000536
11.62,-0.11904000000000536
11.63,-0.11904000000000536
11.64,-0.11904000000000536
11.65,-0.11904000000000536
11.66,-0.11904000000000536
11.67,-0.11904000000000536
11.68,-0.11904000000000536
11.69,-0.11904000000000536
11.70,-0.11904000000000536
11.71,-0.11904000000000536
11.72,-0.11904000000000536
11.73,-0.11904000000000536
11.74,-0.11904000000000536
11.75,-0.11904000000000536
11.76,-0.11904000000000536
11.77,-0.11904000000000536
11.78,-0.11904000000000536
11.79,-0.11904000000000536
11.80,-0.11904000000000536
11.81,-0.11904000000000536
11.82,-0.11904000000000536
11.83,-0.11904000000000536
11.84,-0.11904000000000536
11.86,-0.11904000000000536
11.87,-0.11904000000000536
11.88,-0.11904000000000536
11.89,-0.11904000000000536
11.90,-0.21604000000000667
11.91,-0.21604000000000667
11.92,-0.21604000000000667
11.93,-0.21604000000000667
11.94,-0.21604000000000667
11.95,-0.21604000000000667
11.96,-0.21604000000000667
11.97,-0.21604000000000667
11.98,-0.21604000000000667
11.99,-0.21604000000000667
12.00,-0.11904000000000536
12.01,-0.11904000000000536
12.02,-0.11904000000000536
12.03,-0.11904000000000536
12.04,-0.11904000000000536
12.05,-0.11904000000000536
12.06,-0.11904000000000536
12.07,-0.11904000000000536
12.08,-0.11904000000000536
12.09,-0.11904000000000536
12.10,-0.11904000000000536
12.11,-0.11904000000000536
12.12,-0.11904000000000536
12.13,-0.11904000000000536
12.14,-0.11904000000000536
12.15,-0.11904000000000536
12.16,-0.11904000000000536
12.17,-0.11904000000000536
12.18,-0.11904000000000536
12.19,-0.11904000000000536
12.20,-0.11904000000000536
12.21,-0.11904000000000536
12.22,-0.11904000000000536
12.23,-0.11904000000000536
12.24,-0.11904000000000536
12.25,-0.11904000000000536
12.27,-0.11904000000000536
12.28,-0.11904000000000536
12.29,-0.11904000000000536
12.30,-0.21604000000000667
12.31,-0.21604000000000667
12.32,-0.21604000000000667
12.33,-0.21604000000000667
12.34,-0.21604000000000667
12.35,-0.21604000000000667
12.36,-0.21604000000000667
12.37,-0.21604000000000667
12.38,-0.21604000000000667
12.39,-0.21604000000000667
12.40,-0.21604000000000667
12.41,-0.21604000000000667
12.42,-0.21604000000000667
12.43,-0.21604000000000667
12.44,-0.21604000000000667
12.45,-0.21604000000000667
12.46,-0.21604000000000667
12.47,-0.21604000000000667
12.48,-0.21604000000000667
12.49,-0.21604000000000667
12.50,-0.21604000000000667
12.51,-0.21604000000000667
12.52,-0.21604000000000667
12.53,-0.21604000000000667
12.54,-0.21604000000000667
12.55,-0.21604000000000667
12.56,-0.21604000000000667
12.57,-0.21604000000000667
12.58,-0.21604000000000667
12.59,-0.21604000000000667
12.60,-0.21604000000000667
12.61,-0.21604000000000667
12.62,-0.21604000000000667
12.64,-0.21604000000000667
12.65,-0.21604000000000667
12.66,-0.21604000000000667
12.67,-0.21604000000000667
12.68,-0.21604000000000667
12.69,-0.21604000000000667
12.70,-0.11904000000000536
12.71,-0.11904000000000536
12.72,-0.11904000000000536
12.73,-0.11904000000000536
12.74,-0.11904000000000536
12.75,-0.11904000000000536
12.76,-0.11904000000000536
12.77,-0.11904000000000536
12.78,-0.11904000000000536
12.79,-0.11904000000000536
12.80,-0.11904000000000536
12.81,-0.11904000000000536
12.82,-0.11904000000000536
12.83,-0.11904000000000536
12.84,-0.11904000000000536
12.85,-0.11904000000000536
12.86,-0.11904000000000536
12.87,-0.11904000000000536
12.88,-0.11904000000000536
12.89,-0.11904000000000536
12.90,-0.21604000000000667
12.91,-0.21604000000000667
12.92,-0.21604000000000667
12.93,-0.21604000000000667
12.94,-0.21604000000000667
12.95,-0.21604000000000667
12.96,-0.21604000000000667
12.97,-0.21604000000000667
12.98,-0.21604000000000667
12.99,-0.11904000000000536
13.00,-0.11904000000000536
13.01,-0.11904000000000536
13.02,-0.11904000000000536
13.04,-0.11904000000000536
13.05,-0.11904000000000536
13.06,-0.11904000000000536
13.07,-0.11904000000000536
13.08,-0.11904000000000536
13.09,-0.11904000000000536
13.10,-0.11904000000000536
13.11,-0.11904000000000536
13.12,-0.11904000000000536
13.13,-0.11904000000000536
13.14,-0.11904000000000536
13.15,-0.11904000000000536
13.16,-0.11904000000000536
13.17,-0.11904000000000536
13.18,-0.11904000000000536
13.19,-0.11904000000000536
13.20,-0.11904000000000536
13.21,-0.11904000000000536
13.22,-0.11904000000000536
13.23,-0.11904000000000536
13.24,-0.11904000000000536
13.25,-0.11904000000000536
13.26,-0.11904000000000536
13.27,-0.11904000000000536
13.28,-0.11904000000000536
13.29,-0.11904000000000536
13.30,-0.11904000000000536
13.31,-0.11904000000000536
13.32,-0.11904000000000536
13.33,-0.11904000000000536
13.34,-0.11904000000000536
13.35,-0.11904000000000536
13.36,-0.11904000000000536
13.37,-0.11904000000000536
13.38,-0.11904000000000536
13.39,-0.21604000000000667
13.40,-0.21604000000000667
13.41,-0.21604000000000667
13.43,-0.21604000000000667
13.44,-0.21604000000000667
13.45,-0.21604000000000667
13.46,-0.21604000000000667
13.47,-0.21604000000000667
13.48,-0.21604000000000667
13.49,-0.21604000000000667
13.50,-0.21604000000000667
13.51,-0.21604000000000667
13.52,-0.21604000000000667
13.53,-0.21604000000000667
13.54,-0.21604000000000667
13.55,-0.21604000000000667
13.56,-0.21604000000000667
13.57,-0.21604000000000667
13.58,-0.21604000000000667
13.59,-0.21604000000000667
13.60,-0.11904000000000536
13.61,-0.11904000000000536
13.62,-0.11904000000000536
13.63,-0.11904000000000536
13.64,-0.11904000000000536
13.65,-0.11904000000000536
13.66,-0.11904000000000536
13.67,-0.11904000000000536
13.68,-0.11904000000000536
13.69,-0.11904000000000536
13.70,-0.11904000000000536
13.71,-0.11904000000000536
13.72,-0.11904000000000536
13.73,-0.11904000000000536
13.74,-0.11904000000000536
13.75,-0.11904000000000536
13.76,-0.11904000000000536
13.77,-0.11904000000000536
13.78,-0.11904000000000536
13.79,-0.11904000000000536
13.80,-0.11904000000000536
13.81,-0.11904000000000536
13.83,-0.11904000000000536
13.84,-0.11904000000000536
13.85,-0.11904000000000536
13.86,-0.11904000000000536
13.87,-0.11904000000000536
13.88,-0.11904000000000536
13.89,-0.11904000000000536
13.90,-0.11904000000000536
13.91,-0.11904000000000536
13.92,-0.11904000000000536
13.93,-0.11904000000000536
13.94,-0.11904000000000536
13.95,-0.11904000000000536
13.96,-0.11904000000000536
13.97,-0.11904000000000536
13.98,-0.11904000000000536
13.99,-0.11904000000000536
14.00,-0.11904000000000536
14.01,-0.11904000000000536
14.02,-0.11904000000000536
14.03,-0.11904000000000536
14.04,-0.11904000000000536
14.05,-0.11904000000000536
14.06,-0.11904000000000536
14.07,-0.11904000000000536
14.08,-0.11904000000000536
14.09,-0.11904000000000536
14.10,-0.21604000000000667
14.11,-0.21604000000000667
14.12,-0.21604000000000667
14.13,-0.21604000000000667
14.14,-0.21604000000000667
14.15,-0.21604000000000667
14.16,-0.21604000000000667
14.17,-0.21604000000000667
14.18,-0.21604000000000667
14.19,-0.11904000000000536
14.20,-0.11904000000000536
14.21,-0.11904000000000536
14.22,-0.11904000000000536
14.23,-0.11904000000000536
14.24,-0.11904000000000536
14.26,-0.11904000000000536
14.27,-0.11904000000000536
14.28,-0.11904000000000536
14.29,-0.11904000000000536
14.30,-0.21604000000000667
14.31,-0.21604000000000667
14.32,-0.21604000000000667
14.33,-0.21604000000000667
14.34,-0.21604000000000667
14.35,-0.21604000000000667
14.36,-0.21604000000000667
14.37,-0.21604000000000667
14.38,-0.21604000000000667
14.39,-0.21604000000000667
14.40,-0.21604000000000667
14.41,-0.21604000000000667
14.42,-0.21604000000000667
14.43,-0.21604000000000667
14.44,-0.21604000000000667
14.45,-0.21604000000000667
14.46,-0.21604000000000667
14.47,-0.21604000000000667
14.48,-0.21604000000000667
14.49,-0.21604000000000667
14.50,-0.21604000000000667
14.51,-0.21604000000000667
14.52,-0.21604000000000667
14.53,-0.21604000000000667
14.54,-0.21604000000000667
14.55,-0.21604000000000667
14.56,-0.21604000000000667
14.57,-0.21604000000000667
14.58,-0.21604000000000667
14.59,-0.21604000000000667
14.60,-0.21604000000000667
14.61,-0.21604000000000667
14.62,-0.21604000000000667
14.63,-0.21604000000000667
14.65,-0.21604000000000667
14.66,-0.21604000000000667
14.67,-0.21604000000000667
14.68,-0.21604000000000667
14.69,-0.21604000000000667
14.70,-0.11904000000000536
14.71,-0.11904000000000536
14.72,-0.11904000000000536
14.73,-0.11904000000000536
14.74,-0.11904000000000536
14.75,-0.11904000000000536
14.76,-0.11904000000000536
14.77,-0.11904000000000536
14.78,-0.11904000000000536
14.79,-0.11904000000000536
14.80,-0.11904000000000536
14.81,-0.11904000000000536
14.82,-0.11904000000000536
14.83,-0.11904000000000536
14.84,-0.11904000000000536
14.85,-0.11904000000000536
14.86,-0.11904000000000536
14.87,-0.11904000000000536
14.88,-0.11904000000000536
14.89,-0.11904000000000536
14.90,-0.21604000000000667
14.91,-0.21604000000000667
14.92,-0.21604000000000667
14.93,-0.21604000000000667
14.94,-0.21604000000000667
14.95,-0.21604000000000667
14.96,-0.21604000000000667
14.97,-0.21604000000000667
14.98,-0.21604000000000667
14.99,-0.21604000000000667
15.00,-0.21604000000000667
15.01,-0.21604000000000667
15.02,-0.21604000000000667
15.03,-0.21604000000000667
15.04,-0.21604000000000667
15.05,-0.21604000000000667
15.06,-0.21604000000000667
15.07,-0.21604000000000667
15.08,-0.21604000000000667
15.09,-0.21604000000000667
15.10,-0.21604000000000667
15.11,-0.21604000000000667
15.12,-0.21604000000000667
15.14,-0.21604000000000667
15.15,-0.21604000000000667
15.16,-0.21604000000000667
15.17,-0.21604000000000667
15.18,-0.21604000000000667
15.19,-0.21604000000000667
15.20,-0.21604000000000667
15.21,-0.21604000000000667
15.22,-0.21604000000000667
15.23,-0.21604000000000667
15.24,-0.21604000000000667
15.25,-0.21604000000000667
15.26,-0.21604000000000667
15.27,-0.21604000000000667
15.28,-0.21604000000000667
15.29,-0.21604000000000667
15.30,-0.11904000000000536
15.31,-0.11904000000000536
15.32,-0.11904000000000536
15.33,-0.11904000000000536
15.34,-0.11904000000000536
15.35,-0.11904000000000536
15.36,-0.11904000000000536
15.37,-0.11904000000000536
15.38,-0.11904000000000536
15.39,-0.11904000000000536
15.40,-0.21604000000000667
15.41,-0.21604000000000667
15.42,-0.21604000000000667
15.43,-0.21604000000000667
15.44,-0.21604000000000667
15.45,-0.21604000000000667
15.46,-0.21604000000000667
15.47,-0.21604000000000667
15.48,-0.21604000000000667
15.49,-0.21604000000000667
15.50,-0.12004000000000303
15.51,-0.12004000000000303
15.52,-0.12004000000000303
15.53,-0.12004000000000303
15.54,-0.12004000000000303
15.55,-0.12004000000000303
15.56,-0.12004000000000303
15.57,-0.12004000000000303
15.58,-0.12004000000000303
15.59,-0.12004000000000303
15.60,-0.21604000000000667
15.61,-0.21604000000000667
15.62,-0.21604000000000667
15.63,-0.21604000000000667
15.64,-0.21604000000000667
15.65,-0.21604000000000667
15.66,-0.21604000000000667
15.67,-0.21604000000000667
15.68,-0.21604000000000667
15.69,-0.21604000000000667
15.70,-0.11904000000000536
15.71,-0.11904000000000536
15.72,-0.11904000000000536
15.73,-0.11904000000000536
15.74,-0.11904000000000536
15.75,-0.11904000000000536
15.76,-0.11904000000000536
15.77,-0.11904000000000536
15.78,-0.11904000000000536
15.79,-0.11904000000000536
15.80,-0.21604000000000667
15.81,-0.21604000000000667
15.82,-0.21604000000000667
15.83,-0.21604000000000667
15.84,-0.21604000000000667
15.85,-0.21604000000000667
15.86,-0.21604000000000667
15.87,-0.21604000000000667
15.88,-0.21604000000000667
15.89,-0.11904000000000536
15.90,-0.11904000000000536
15.91,-0.11904000000000536
15.93,-0.11904000000000536
15.94,-0.11904000000000536
15.95,-0.11904000000000536
15.96,-0.11904000000000536
15.97,-0.11904000000000536
15.98,-0.11904000000000536
15.99,-0.11904000000000536
16.00,-0.21604000000000667
16.01,-0.21604000000000667
16.02,-0.21604000000000667
16.03,-0.21604000000000667
16.04,-0.21604000000000667
16.05,-0.21604000000000667
16.06,-0.21604000000000667
16.07,-0.21604000000000667
16.08,-0.21604000000000667
16.09,-0.21604000000000667
16.10,-0.21604000000000667
16.11,-0.21604000000000667
16.12,-0.21604000000000667
16.13,-0.21604000000000667
16.14,-0.21604000000000667
16.15,-0.21604000000000667
16.16,-0.21604000000000667
16.17,-0.21604000000000667
16.18,-0.21604000000000667
16.19,-0.21604000000000667
16.20,-0.21604000000000667
16.21,-0.21604000000000667
16.22,0.47095999999999805
16.23,0.47095999999999805
16.24,0.47095999999999805
16.25,0.47095999999999805
16.26,0.47095999999999805
16.27,0.47095999999999805
16.28,0.47095999999999805
16.29,0.47095999999999805
16.30,0.47095999999999805
16.31,0.47095999999999805
16.32,23.41995999999999
16.33,23.41995999999999
16.34,23.41995999999999
16.35,23.41995999999999
16.36,23.41995999999999
16.37,23.41995999999999
16.38,23.41995999999999
16.39,23.41995999999999
16.40,23.41995999999999
16.41,23.41995999999999
16.42,25.55995999999999
16.43,25.55995999999999
16.44,25.55995999999999
16.45,25.55995999999999
16.46,25.55995999999999
16.47,25.55995999999999
16.48,25.55995999999999
16.49,25.55995999999999
16.50,25.55995999999999
16.51,25.55995999999999
16.52,25.271959999999993
16.53,25.271959999999993
16.54,25.271959999999993
16.55,25.271959999999993
16.56,25.271959999999993
16.57,25.271959999999993
16.58,25.271959999999993
16.59,25.271959999999993
16.60,25.271959999999993
16.61,25.271959999999993
16.62,86.49495999999999
16.63,86.49495999999999
16.64,86.49495999999999
16.65,86.49495999999999
16.66,86.49495999999999
16.67,86.49495999999999
16.68,86.49495999999999
16.69,86.49495999999999
16.70,86.49495999999999
16.71,86.49495999999999
16.73,127.48295999999999
16.74,127.48295999999999
16.75,127.48295999999999
16.76,127.48295999999999
16.77,127.48295999999999
16.78,127.48295999999999
16.79,127.48295999999999
16.80,127.48295999999999
16.81,127.48295999999999
16.82,127.48295999999999
16.83,128.29596
16.84,128.29596
16.85,128.29596
16.86,128.29596
16.87,128.29596
16.88,128.29596
16.89,128.29596
16.90,128.29596
16.91,128.29596
16.92,128.29596
16.93,128.67696
16.94,128.67696
16.95,128.67696
16.96,128.67696
16.97,128.67696
16.98,128.67696
16.99,128.67696
17.00,128.67696
17.01,128.67696
17.02,129.06996
17.03,129.06996
17.04,129.06996
17.05,129.06996
17.06,129.06996
17.07,129.06996
17.08,129.06996
17.09,129.06996
17.10,129.06996
17.11,129.06996
17.12,129.06996
17.13,129.06996
17.14,129.06996
17.15,129.06996
17.16,129.06996
17.17,129.06996
17.18,129.06996
17.19,129.06996
17.20,129.06996
17.21,129.06996
17.22,129.16595999999998
17.23,129.16595999999998
17.24,129.16595999999998
17.25,129.16595999999998
17.26,129.16595999999998
17.27,129.16595999999998
17.28,129.16595999999998
17.29,129.16595999999998
17.30,129.16595999999998
17.31,129.16595999999998
17.32,129.69396
17.33,129.69396
17.34,129.69396
17.35,129.69396
17.36,129.69396
17.37,129.69396
17.38,129.69396
17.39,129.69396
17.40,129.69396
17.41,129.69396
17.42,129.84496
17.43,129.84496
17.44,129.84496
17.45,129.84496
17.46,129.84496
17.47,129.84496
17.48,129.84496
17.49,129.84496
17.50,129.84496
17.52,129.84496
17.53,129.97896
17.54,129.97896
17.55,129.97896
17.56,129.97896
17.57,129.97896
17.58,129.97896
17.59,129.97896
17.60,129.97896
17.61,129.97896
17.62,129.97896
17.63,129.78896
17.64,129.78896
17.65,129.78896
17.66,129.78896
17.67,129.78896
17.68,129.78896
17.69,129.78896
17.70,129.78896
17.71,129.78896
17.72,129.78896
17.73,129.74895999999998
17.74,129.74895999999998
17.75,129.74895999999998
17.76,129.74895999999998
17.77,129.74895999999998
17.78,129.74895999999998
17.79,129.74895999999998
17.80,129.74895999999998
17.81,129.74895999999998
17.82,129.74895999999998
17.83,130.56196
17.84,130.56196
17.85,130.56196
17.86,130.56196
17.87,130.56196
17.88,130.56196
17.89,130.56196
17.90,130.56196
17.91,130.56196
17.92,130.56196
17.93,130.71295999999998
17.94,130.71295999999998
17.95,130.71295999999998
17.96,130.71295999999998
17.97,130.71295999999998
17.98,130.71295999999998
17.99,130.71295999999998
18.00,130.71295999999998
18.01,130.71295999999998
18.02,130.61696
18.03,130.61696
18.04,130.61696
18.05,130.61696
18.06,130.61696
18.07,130.61696
18.08,130.61696
18.09,130.61696
18.10,130.61696
18.11,130.61696
18.12,130.07396
18.13,130.07396
18.14,130.07396
18.15,130.07396
18.16,130.07396
18.17,130.07396
18.18,130.07396
18.19,130.07396
18.20,130.07396
18.21,130.07396
18.22,131.81196
18.23,131.81196
18.24,131.81196
18.25,131.81196
18.26,131.81196
18.27,131.81196
18.28,131.81196
18.29,131.81196
18.30,131.81196
18.32,131.81196
18.33,131.32296
18.34,131.32296
18.35,131.32296
18.36,131.32296
18.37,131.32296
18.38,131.32296
18.39,131.32296
18.40,131.32296
18.41,131.32296
18.42,131.32296
18.43,131.28396
18.44,131.28396
18.45,131.28396
18.46,131.28396
18.47,131.28396
18.48,131.28396
18.49,131.28396
18.50,131.28396
18.51,131.28396
18.52,131.28396
18.53,24.873959999999997
18.54,24.873959999999997
18.55,24.873959999999997
18.56,24.873959999999997
18.57,24.873959999999997
18.58,24.873959999999997
18.59,24.873959999999997
18.60,24.873959999999997
18.61,24.873959999999997
18.62,24.873959999999997
18.63,28.43696
18.64,28.43696
18.65,28.43696
18.66,28.43696
18.67,28.43696
18.68,28.43696
18.69,28.43696
18.70,28.43696
18.71,28.43696
18.72,28.43696
18.73,24.09295999999999
18.74,24.09295999999999
18.75,24.09295999999999
18.76,24.09295999999999
18.77,24.09295999999999
18.78,24.09295999999999
18.79,24.09295999999999
18.80,24.09295999999999
18.81,24.09295999999999
18.82,24.09295999999999
18.83,23.80395999999999
18.84,23.80395999999999
18.85,23.80395999999999
18.86,23.80395999999999
18.87,23.80395999999999
18.88,23.80395999999999
18.89,23.80395999999999
18.90,23.80395999999999
18.91,23.80395999999999
18.92,23.80395999999999
18.93,23.80395999999999
18.94,23.80395999999999
18.96,23.80395999999999
18.97,23.80395999999999
18.98,23.80395999999999
18.99,23.80395999999999
19.00,23.80395999999999
19.01,23.80395999999999
19.02,23.80395999999999
19.03,23.70796
19.04,23.70796
19.05,23.70796
19.06,23.70796
19.07,23.70796
19.08,23.70796
19.09,23.70796
19.10,23.70796
19.11,23.70796
19.12,23.70796
19.13,23.70796
19.14,23.70796
19.15,23.70796
19.16,23.70796
19.17,23.70796
19.18,23.70796
19.19,23.70796
19.20,23.70796
19.21,23.70796
19.22,23.70796
19.23,23.80395999999999
19.24,23.80395999999999
19.25,23.80395999999999
19.26,23.80395999999999
19.27,23.80395999999999
19.28,23.80395999999999
19.29,23.80395999999999
19.30,23.80395999999999
19.31,23.80395999999999
19.32,23.80395999999999
19.33,23.80395999999999
19.34,23.80395999999999
19.36,23.80395999999999
19.37,23.80395999999999
19.38,23.80395999999999
19.39,23.80395999999999
19.40,23.80395999999999
19.41,23.80395999999999
19.42,23.80395999999999
19.43,23.611959999999996
19.44,23.611959999999996
19.45,23.611959999999996
19.46,23.611959999999996
19.47,23.611959999999996
19.48,23.611959999999996
19.49,23.611959999999996
19.50,23.611959999999996
19.51,23.611959999999996
19.52,23.611959999999996
19.53,23.503959999999992
19.54,23.503959999999992
19.55,23.503959999999992
19.56,23.503959999999992
19.57,23.503959999999992
19.58,23.503959999999992
19.59,23.503959999999992
19.60,23.503959999999992
19.61,23.503959999999992
19.62,23.503959999999992
19.63,23.70796
19.64,23.70796
19.65,23.70796
19.66,23.70796
19.67,23.70796
19.68,23.70796
19.69,23.70796
19.70,23.70796
19.71,23.70796
19.72,23.80395999999999
19.73,23.80395999999999
19.75,23.80395999999999
19.76,23.80395999999999
19.77,23.80395999999999
19.78,23.80395999999999
19.79,23.80395999999999
19.80,23.80395999999999
19.81,23.80395999999999
19.82,23.80395999999999
19.83,23.503959999999992
19.84,23.503959999999992
19.85,23.503959999999992
19.86,23.503959999999992
19.87,23.503959999999992
19.88,23.503959999999992
19.89,23.503959999999992
19.90,23.503959999999992
19.91,23.503959999999992
19.92,23.503959999999992
19.93,23.611959999999996
19.94,23.611959999999996
19.95,23.611959999999996
19.96,23.611959999999996
19.97,23.611959999999996
19.98,23.611959999999996
19.99,23.611959999999996
20.00,23.611959999999996
20.01,23.611959999999996
20.02,23.611959999999996
20.03,23.70796
20.04,23.70796
20.05,23.70796
20.06,23.70796
20.07,23.70796
20.08,23.70796
20.09,23.70796
20.10,23.70796
20.11,23.70796
20.13,23.70796
20.14,23.70796
20.15,23.70796
20.16,23.70796
20.17,23.70796
20.18,23.70796
20.19,23.70796
20.20,23.70796
20.21,23.70796
20.22,23.70796
20.23,23.70796
20.24,23.70796
20.25,23.70796
20.26,23.70796
20.27,23.70796
20.28,23.70796
20.29,23.70796
20.30,23.70796
20.31,23.70796
20.32,23.70796
20.33,23.70796
20.34,23.70796
20.35,23.70796
20.36,23.70796
20.37,23.70796
20.38,23.70796
20.39,23.70796
20.40,23.70796
20.41,23.70796
20.42,23.70796
20.43,1.240959999999994
20.44,1.240959999999994
20.45,1.240959999999994
20.46,1.240959999999994
20.47,1.240959999999994
20.48,1.240959999999994
20.49,1.240959999999994
20.50,1.240959999999994
20.52,1.240959999999994
20.53,0.47095999999999805
20.54,0.47095999999999805
20.55,0.47095999999999805
20.56,0.47095999999999805
20.57,0.47095999999999805
20.58,0.47095999999999805
20.59,0.47095999999999805
20.60,0.47095999999999805
20.61,0.47095999999999805
20.62,0.47095999999999805
20.63,0.47095999999999805
20.64,0.47095999999999805
20.65,0.47095999999999805
20.66,0.47095999999999805
20.67,0.47095999999999805
20.68,0.47095999999999805
20.69,0.47095999999999805
20.70,0.47095999999999805
20.71,0.47095999999999805
20.72,0.47095999999999805
20.73,0.3749599999999944
20.74,0.3749599999999944
20.75,0.3749599999999944
20.76,0.3749599999999944
20.77,0.3749599999999944
20.78,0.3749599999999944
20.79,0.3749599999999944
20.80,0.3749599999999944
20.81,0.3749599999999944
20.82,0.3749599999999944
20.83,0.3749599999999944
20.84,0.3749599999999944
20.85,0.3749599999999944
20.86,0.3749599999999944
20.87,0.3749599999999944
20.88,0.3749599999999944
20.90,0.3749599999999944
20.91,0.3749599999999944
20.92,0.3749599999999944
20.93,0.3749599999999944
20.94,0.3749599999999944
20.95,0.3749599999999944
20.96,0.3749599999999944
20.97,0.3749599999999944
20.98,0.3749599999999944
20.99,0.3749599999999944
21.00,0.3749599999999944
21.01,0.3749599999999944
21.02,0.3749599999999944
21.03,0.3749599999999944
21.04,0.3749599999999944
21.05,0.3749599999999944
21.06,0.3749599999999944
21.07,0.3749599999999944
21.08,0.3749599999999944
21.09,0.3749599999999944
21.10,0.3749599999999944
21.11,0.3749599999999944
21.12,0.3749599999999944
21.13,0.2779599999999931
21.14,0.2779599999999931
21.15,0.2779599999999931
21.16,0.2779599999999931
21.17,0.2779599999999931
21.18,0.2779599999999931
21.19,0.2779599999999931
21.20,0.2779599999999931
21.21,0.2779599999999931
21.22,0.2779599999999931
21.23,0.16895999999999844
21.24,0.16895999999999844
21.25,0.16895999999999844
21.26,0.16895999999999844
21.28,0.16895999999999844
21.29,0.16895999999999844
21.30,0.16895999999999844
21.31,0.16895999999999844
21.32,0.16895999999999844
21.33,0.16895999999999844
21.34,0.16895999999999844
21.35,0.16895999999999844
21.36,0.16895999999999844
21.37,0.16895999999999844
21.38,0.16895999999999844
21.39,0.16895999999999844
21.40,0.16895999999999844
21.41,0.16895999999999844
21.42,0.16895999999999844
21.43,0.16895999999999844
21.44,0.16895999999999844
21.45,0.16895999999999844
21.46,0.16895999999999844
21.47,0.16895999999999844
21.48,0.16895999999999844
21.49,0.16895999999999844
21.50,0.16895999999999844
21.51,0.16895999999999844
21.52,0.16895999999999844
21.53,0.18195999999999657
21.54,0.18195999999999657
21.55,0.18195999999999657
21.56,0.18195999999999657
21.57,0.18195999999999657
21.58,0.18195999999999657
21.59,0.18195999999999657
21.60,0.18195999999999657
21.61,0.18195999999999657
21.62,0.18195999999999657
21.63,0.16895999999999844
21.64,0.16895999999999844
21.65,0.16895999999999844
21.67,0.16895999999999844
21.68,0.16895999999999844
21.69,0.16895999999999844
21.70,0.16895999999999844
21.71,0.16895999999999844
21.72,0.16895999999999844
21.73,0.16895999999999844
21.74,0.16895999999999844
21.75,0.16895999999999844
21.76,0.16895999999999844
21.77,0.16895999999999844
21.78,0.16895999999999844
21.79,0.16895999999999844
21.80,0.16895999999999844
21.81,0.16895999999999844
21.82,0.16895999999999844
21.83,0.16895999999999844
21.84,0.16895999999999844
21.85,0.16895999999999844
21.86,0.16895999999999844
21.87,0.16895999999999844
21.88,0.16895999999999844
21.89,0.16895999999999844
21.90,0.16895999999999844
21.91,0.16895999999999844
21.92,0.16895999999999844
21.93,0.16895999999999844
21.94,0.16895999999999844
21.95,0.16895999999999844
21.96,0.16895999999999844
21.97,0.16895999999999844
21.98,0.16895999999999844
21.99,0.16895999999999844
22.00,0.16895999999999844
22.01,0.16895999999999844
22.02,0.16895999999999844
22.03,0.16895999999999844
22.04,0.16895999999999844
22.05,0.16895999999999844
22.07,0.16895999999999844
22.08,0.16895999999999844
22.09,0.16895999999999844
22.10,0.16895999999999844
22.11,0.16895999999999844
22.12,0.16895999999999844
22.13,0.16895999999999844
22.14,0.16895999999999844
22.15,0.16895999999999844
22.16,0.16895999999999844
22.17,0.16895999999999844
22.18,0.16895999999999844
22.19,0.16895999999999844
22.20,0.16895999999999844
22.21,0.16895999999999844
22.22,0.16895999999999844
22.23,0.16895999999999844
22.24,0.16895999999999844
22.25,0.16895999999999844
22.26,0.16895999999999844
22.27,0.16895999999999844
22.28,0.16895999999999844
22.29,0.16895999999999844
22.30,0.16895999999999844
22.31,0.16895999999999844
22.32,0.16895999999999844
22.33,0.16895999999999844
22.34,0.16895999999999844
22.35,0.16895999999999844
22.36,0.16895999999999844
22.37,0.16895999999999844
22.38,0.16895999999999844
22.39,0.16895999999999844
22.40,0.16895999999999844
22.41,0.16895999999999844
22.42,0.16895999999999844
22.43,0.16895999999999844
22.44,0.16895999999999844
22.45,0.16895999999999844
22.46,0.16895999999999844
22.48,0.16895999999999844
22.49,0.16895999999999844
22.50,0.16895999999999844
22.51,0.16895999999999844
22.52,0.16895999999999844
22.53,0.16895999999999844
22.54,0.16895999999999844
22.55,0.16895999999999844
22.56,0.16895999999999844
22.57,0.16895999999999844
22.58,0.16895999999999844
22.59,0.16895999999999844
22.60,0.16895999999999844
22.61,0.16895999999999844
22.62,0.16895999999999844
22.63,0.16895999999999844
22.64,0.16895999999999844
22.65,0.16895999999999844
22.66,0.16895999999999844
22.67,0.16895999999999844
22.68,0.16895999999999844
22.69,0.16895999999999844
22.70,0.16895999999999844
22.71,0.16895999999999844
22.72,0.16895999999999844
22.73,0.16895999999999844
22.74,0.16895999999999844
22.75,0.16895999999999844
22.76,0.16895999999999844
22.77,0.16895999999999844
22.78,0.16895999999999844
22.79,0.16895999999999844
22.80,0.16895999999999844
22.81,0.16895999999999844
22.82,0.16895999999999844
22.83,0.16895999999999844
22.84,0.16895999999999844
22.86,0.16895999999999844
22.87,0.16895999999999844
22.88,0.16895999999999844
22.89,0.16895999999999844
22.90,0.16895999999999844
22.91,0.16895999999999844
22.92,0.16895999999999844
22.93,0.16895999999999844
22.94,0.0729599999999948
22.95,0.0729599999999948
22.96,0.0729599999999948
22.97,0.0729599999999948
22.98,0.0729599999999948
22.99,0.0729599999999948
23.00,0.0729599999999948
23.01,0.0729599999999948
23.02,0.0729599999999948
23.03,0.0729599999999948
23.04,0.0729599999999948
23.05,0.0729599999999948
23.06,0.0729599999999948
23.07,0.0729599999999948
23.08,0.0729599999999948
23.09,0.0729599999999948
23.10,0.0729599999999948
23.11,0.0729599999999948
23.12,0.0729599999999948
23.13,0.16895999999999844
23.14,0.16895999999999844
23.15,0.16895999999999844
23.16,0.16895999999999844
23.17,0.16895999999999844
23.18,0.16895999999999844
23.19,0.16895999999999844
23.20,0.16895999999999844
23.21,0.16895999999999844
23.22,0.16895999999999844
23.23,0.16895999999999844
23.25,0.16895999999999844
23.26,0.16895999999999844
23.27,0.16895999999999844
23.28,0.16895999999999844
23.29,0.16895999999999844
23.30,0.16895999999999844
23.31,0.16895999999999844
23.32,0.16895999999999844
23.33,0.16895999999999844
23.34,0.0729599999999948
23.35,0.0729599999999948
23.36,0.0729599999999948
23.37,0.0729599999999948
23.38,0.0729599999999948
23.39,0.0729599999999948
23.40,0.0729599999999948
23.41,0.0729599999999948
23.42,0.0729599999999948
23.43,0.16895999999999844
23.44,0.16895999999999844
23.45,0.16895999999999844
23.46,0.16895999999999844
23.47,0.16895999999999844
23.48,0.16895999999999844
23.49,0.16895999999999844
23.50,0.16895999999999844
23.51,0.16895999999999844
23.52,0.16895999999999844
23.53,0.16895999999999844
23.54,0.16895999999999844
23.55,0.16895999999999844
23.56,0.16895999999999844
23.57,0.16895999999999844
23.58,0.16895999999999844
23.59,0.16895999999999844
23.60,0.16895999999999844
23.61,0.16895999999999844
23.63,0.16895999999999844
23.64,0.0729599999999948
23.65,0.0729599999999948
23.66,0.0729599999999948
23.67,0.0729599999999948
23.68,0.0729599999999948
23.69,0.0729599999999948
23.70,0.0729599999999948
23.71,0.0729599999999948
23.72,0.0729599999999948
23.73,0.0729599999999948
23.74,0.0729599999999948
23.75,0.0729599999999948
23.76,0.0729599999999948
23.77,0.0729599999999948
23.78,0.0729599999999948
23.79,0.0729599999999948
23.80,0.0729599999999948
23.81,0.0729599999999948
23.82,0.0729599999999948
23.83,0.0729599999999948
23.84,0.16895999999999844
23.85,0.16895999999999844
23.86,0.16895999999999844
23.87,0.16895999999999844
23.88,0.16895999999999844
23.89,0.16895999999999844
23.90,0.16895999999999844
23.91,0.16895999999999844
23.92,0.16895999999999844
23.93,0.16895999999999844
23.94,0.16895999999999844
23.95,0.16895999999999844
23.96,0.16895999999999844
23.97,0.16895999999999844
23.98,0.16895999999999844
23.99,0.16895999999999844
24.01,0.16895999999999844
24.02,0.16895999999999844
24.03,0.16895999999999844
24.04,0.0729599999999948
24.05,0.0729599999999948
24.06,0.0729599999999948
24.07,0.0729599999999948
24.08,0.0729599999999948
24.09,0.0729599999999948
24.10,0.0729599999999948
24.11,0.0729599999999948
24.12,0.0729599999999948
24.13,0.0729599999999948
24.14,0.16895999999999844
24.15,0.16895999999999844
24.16,0.16895999999999844
24.17,0.16895999999999844
24.18,0.16895999999999844
24.19,0.16895999999999844
24.20,0.16895999999999844
24.21,0.16895999999999844
24.22,0.16895999999999844
24.23,0.16895999999999844
24.24,0.16895999999999844
24.25,0.16895999999999844
24.26,0.16895999999999844
24.27,0.16895999999999844
24.28,0.16895999999999844
24.29,0.16895999999999844
24.30,0.16895999999999844
24.31,0.16895999999999844
24.32,0.16895999999999844
24.33,0.0729599999999948
24.34,0.0729599999999948
24.35,0.0729599999999948
24.36,0.0729599999999948
24.37,0.0729599999999948
24.39,0.0729599999999948
24.40,0.0729599999999948
24.41,0.0729599999999948
24.42,0.0729599999999948
24.43,0.0729599999999948
24.44,0.16895999999999844
24.45,0.16895999999999844
24.46,0.16895999999999844
24.47,0.16895999999999844
24.48,0.16895999999999844
24.49,0.16895999999999844
24.50,0.16895999999999844
24.51,0.16895999999999844
24.52,0.16895999999999844
24.53,0.16895999999999844
24.54,0.16895999999999844
24.55,0.16895999999999844
24.56,0.16895999999999844
24.57,0.16895999999999844
24.58,0.16895999999999844
24.59,0.16895999999999844
24.60,0.16895999999999844
24.61,0.16895999999999844
24.62,0.16895999999999844
24.63,0.16895999999999844
24.64,0.16895999999999844
24.65,0.16895999999999844
24.66,0.16895999999999844
24.67,0.16895999999999844
24.68,0.16895999999999844
24.69,0.16895999999999844
24.70,0.16895999999999844
24.71,0.16895999999999844
24.72,0.16895999999999844
24.73,0.16895999999999844
24.74,0.16895999999999844
24.75,0.16895999999999844
24.76,0.16895999999999844
24.77,0.16895999999999844
24.79,0.16895999999999844
24.80,0.16895999999999844
24.81,0.16895999999999844
24.82,0.16895999999999844
24.83,0.16895999999999844
24.84,0.16895999999999844
24.85,0.16895999999999844
24.86,0.16895999999999844
24.87,0.16895999999999844
24.88,0.16895999999999844
24.89,0.16895999999999844
24.90,0.16895999999999844
24.91,0.16895999999999844
24.92,0.16895999999999844
24.93,0.16895999999999844
24.94,0.16895999999999844
24.95,0.16895999999999844
24.96,0.16895999999999844
24.97,0.16895999999999844
24.98,0.16895999999999844
24.99,0.16895999999999844
25.00,0.16895999999999844
25.01,0.16895999999999844
25.02,0.16895999999999844
25.03,0.16895999999999844
25.04,0.16895999999999844
25.05,0.16895999999999844
25.06,0.16895999999999844
25.07,0.16895999999999844
25.08,0.16895999999999844
25.09,0.16895999999999844
25.10,0.16895999999999844
25.11,0.16895999999999844
25.12,0.16895999999999844
25.13,0.16895999999999844
25.14,0.16895999999999844
25.16,0.16895999999999844
25.17,0.16895999999999844
25.18,0.16895999999999844
25.19,0.16895999999999844
25.20,0.16895999999999844
25.21,0.16895999999999844
25.22,0.16895999999999844
25.23,0.16895999999999844
25.24,0.0729599999999948
25.25,0.0729599999999948
25.26,0.0729599999999948
25.27,0.0729599999999948
25.28,0.0729599999999948
25.29,0.0729599999999948
25.30,0.0729599999999948
25.31,0.0729599999999948
25.32,0.0729599999999948
25.33,0.0729599999999948
25.34,0.0729599999999948
25.35,0.0729599999999948
25.36,0.0729599999999948
25.37,0.0729599999999948
25.38,0.0729599999999948
25.39,0.0729599999999948
25.40,0.0729599999999948
25.41,0.0729599999999948
25.42,0.0729599999999948
25.43,0.0729599999999948
25.44,0.16895999999999844
25.45,0.16895999999999844
25.46,0.16895999999999844
25.47,0.16895999999999844
25.48,0.16895999999999844
25.49,0.16895999999999844
25.50,0.16895999999999844
25.51,0.16895999999999844
25.52,0.16895999999999844
25.53,0.0729599999999948
25.55,0.0729599999999948
25.56,0.0729599999999948
25.57,0.0729599999999948
25.58,0.0729599999999948
25.59,0.0729599999999948
25.60,0.0729599999999948
25.61,0.0729599999999948
25.62,0.0729599999999948
25.63,0.0729599999999948
25.64,0.0729599999999948
25.65,0.0729599999999948
25.66,0.0729599999999948
25.67,0.0729599999999948
25.68,0.0729599999999948
25.69,0.0729599999999948
25.70,0.0729599999999948
25.71,0.0729599999999948
25.72,0.0729599999999948
25.73,0.0729599999999948
25.74,0.0729599999999948
25.75,0.0729599999999948
25.76,0.0729599999999948
25.77,0.0729599999999948
25.78,0.0729599999999948
25.79,0.0729599999999948
25.80,0.0729599999999948
25.81,0.0729599999999948
25.82,0.0729599999999948
25.83,0.0729599999999948
25.84,0.0729599999999948
25.85,0.0729599999999948
25.86,0.0729599999999948
25.87,0.0729599999999948
25.88,0.0729599999999948
25.89,0.0729599999999948
25.90,0.0729599999999948
25.91,0.0729599999999948
25.92,0.0729599999999948
25.94,0.0729599999999948
25.95,0.0729599999999948
25.96,0.0729599999999948
25.97,0.0729599999999948
25.98,0.0729599999999948
25.99,0.0729599999999948
26.00,0.0729599999999948
26.01,0.0729599999999948
26.02,0.0729599999999948
26.03,0.0729599999999948
26.04,0.0729599999999948
26.05,0.0729599999999948
26.06,0.0729599999999948
26.07,0.0729599999999948
26.08,0.0729599999999948
26.09,0.0729599999999948
26.10,0.0729599999999948
26.11,0.0729599999999948
26.12,0.0729599999999948
26.13,0.0729599999999948
26.14,0.16895999999999844
26.15,0.16895999999999844
26.16,0.16895999999999844
26.17,0.16895999999999844
26.18,0.16895999999999844
26.19,0.16895999999999844
26.20,0.16895999999999844
26.21,0.16895999999999844
26.22,0.16895999999999844
26.23,0.16895999999999844
26.24,0.0729599999999948
26.25,0.0729599999999948
26.26,0.0729599999999948
26.27,0.0729599999999948
26.28,0.0729599999999948
26.29,0.0729599999999948
26.30,0.0729599999999948
26.31,0.0729599999999948
26.33,0.0729599999999948
26.34,0.0729599999999948
26.35,0.0729599999999948
26.36,0.0729599999999948
26.37,0.0729599999999948
26.38,0.0729599999999948
26.39,0.0729599999999948
26.40,0.0729599999999948
26.41,0.0729599999999948
26.42,0.0729599999999948
26.43,0.0729599999999948
26.44,0.16895999999999844
26.45,0.16895999999999844
26.46,0.16895999999999844
26.47,0.16895999999999844
26.48,0.16895999999999844
26.49,0.16895999999999844
26.50,0.16895999999999844
26.51,0.16895999999999844
26.52,0.16895999999999844
26.53,0.16895999999999844
26.54,0.0729599999999948
26.55,0.0729599999999948
26.56,0.0729599999999948
26.57,0.0729599999999948
26.58,0.0729599999999948
26.59,0.0729599999999948
26.60,0.0729599999999948
26.61,0.0729599999999948
26.62,0.0729599999999948
26.63,0.0729599999999948
26.64,0.0729599999999948
26.65,0.0729599999999948
26.66,0.0729599999999948
26.67,0.0729599999999948
26.68,0.0729599999999948
26.69,0.0729599999999948
26.71,0.0729599999999948
26.72,0.0729599999999948
26.73,0.0729599999999948
26.74,0.0729599999999948
26.75,0.0729599999999948
26.76,0.0729599999999948
26.77,0.0729599999999948
26.78,0.0729599999999948
26.79,0.0729599999999948
26.80,0.0729599999999948
26.81,0.0729599999999948
26.82,0.0729599999999948
26.83,0.0729599999999948
26.84,0.0729599999999948
26.85,0.0729599999999948
26.86,0.0729599999999948
26.87,0.0729599999999948
26.88,0.0729599999999948
26.89,0.0729599999999948
26.90,0.0729599999999948
26.91,0.0729599999999948
26.92,0.0729599999999948
26.93,0.0729599999999948
26.94,0.0729599999999948
26.95,0.0729599999999948
26.96,0.0729599999999948
26.97,0.0729599999999948
26.98,0.0729599999999948
26.99,0.0729599999999948
27.00,0.0729599999999948
27.01,0.0729599999999948
27.02,0.0729599999999948
27.03,0.0729599999999948
27.04,0.0729599999999948
27.05,0.0729599999999948
27.06,0.0729599999999948
27.07,0.0729599999999948
27.09,0.0729599999999948
27.10,0.0729599999999948
27.11,0.0729599999999948
27.12,0.0729599999999948
27.13,0.0729599999999948
27.14,0.0729599999999948
27.15,0.0729599999999948
27.16,0.0729599999999948
27.17,0.0729599999999948
27.18,0.0729599999999948
27.19,0.0729599999999948
27.20,0.0729599999999948
27.21,0.0729599999999948
27.22,0.0729599999999948
27.23,0.0729599999999948
27.24,0.0729599999999948
27.25,0.0729599999999948
27.26,0.0729599999999948
27.27,0.0729599999999948
27.28,0.0729599999999948
27.29,0.0729599999999948
27.30,0.0729599999999948
27.31,0.0729599999999948
27.32,0.0729599999999948
27.33,0.0729599999999948
27.34,0.0729599999999948
27.35,0.0729599999999948
27.36,0.0729599999999948
27.37,0.0729599999999948
27.38,0.0729599999999948
27.39,0.0729599999999948
27.40,0.0729599999999948
27.41,0.0729599999999948
27.42,0.0729599999999948
27.43,0.0729599999999948
27.44,0.16895999999999844
27.45,0.16895999999999844
27.47,0.16895999999999844
27.48,0.16895999999999844
27.49,0.16895999999999844
27.50,0.16895999999999844
27.51,0.16895999999999844
27.52,0.16895999999999844
27.53,0.16895999999999844
27.54,0.0729599999999948
27.55,0.0729599999999948
27.56,0.0729599999999948
27.57,0.0729599999999948
27.58,0.0729599999999948
27.59,0.0729599999999948
27.60,0.0729599999999948
27.61,0.0729599999999948
27.62,0.0729599999999948
27.63,0.0729599999999948
27.64,-0.023040000000001726
27.65,-0.023040000000001726
27.66,-0.023040000000001726
27.67,-0.023040000000001726
27.68,-0.023040000000001726
27.69,-0.023040000000001726
27.70,-0.023040000000001726
27.71,-0.023040000000001726
27.72,-0.023040000000001726
27.73,-0.023040000000001726
27.74,0.0729599999999948
27.75,0.0729599999999948
27.76,0.0729599999999948
27.77,0.0729599999999948
27.78,0.0729599999999948
27.79,0.0729599999999948
27.80,0.0729599999999948
27.81,0.0729599999999948
27.82,0.0729599999999948
27.83,0.0729599999999948
27.84,0.0729599999999948
27.86,0.0729599999999948
27.87,0.0729599999999948
27.88,0.0729599999999948
27.89,0.0729599999999948
27.90,0.0729599999999948
27.91,0.0729599999999948
27.92,0.0729599999999948
27.93,0.0729599999999948
27.94,0.0729599999999948
27.95,0.0729599999999948
27.96,0.0729599999999948
27.97,0.0729599999999948
27.98,0.0729599999999948
27.99,0.0729599999999948
28.00,0.0729599999999948
28.01,0.0729599999999948
28.02,0.0729599999999948
28.03,0.0729599999999948
28.04,0.0729599999999948
28.05,0.0729599999999948
28.06,0.0729599999999948
28.07,0.0729599999999948
28.08,0.0729599999999948
28.09,0.0729599999999948
28.10,0.0729599999999948
28.11,0.0729599999999948
28.12,0.0729599999999948
28.13,0.0729599999999948
28.14,0.0729599999999948
28.15,0.0729599999999948
28.16,0.0729599999999948
28.17,0.0729599999999948
28.18,0.0729599999999948
28.19,0.0729599999999948
28.20,0.0729599999999948
28.21,0.0729599999999948
28.22,0.0729599999999948
28.24,0.0729599999999948
28.25,0.0729599999999948
28.26,0.0729599999999948
28.27,0.0729599999999948
28.28,0.0729599999999948
28.29,0.0729599999999948
28.30,0.0729599999999948
28.31,0.0729599999999948
28.32,0.0729599999999948
28.33,0.0729599999999948
28.34,0.0729599999999948
28.35,0.0729599999999948
28.36,0.0729599999999948
28.37,0.0729599999999948
28.38,0.0729599999999948
28.39,0.0729599999999948
28.40,0.0729599999999948
28.41,0.0729599999999948
28.42,0.0729599999999948
28.43,0.0729599999999948
28.44,0.0729599999999948
28.45,0.0729599999999948
28.46,0.0729599999999948
28.47,0.0729599999999948
28.48,0.0729599999999948
28.49,0.0729599999999948
28.50,0.0729599999999948
28.51,0.0729599999999948
28.52,0.0729599999999948
28.53,0.0729599999999948
28.54,0.0729599999999948
28.55,0.0729599999999948
28.56,0.0729599999999948
28.57,0.0729599999999948
28.58,0.0729599999999948
28.59,0.0729599999999948
28.60,0.0729599999999948
28.61,0.0729599999999948
28.63,0.0729599999999948
28.64,0.0729599999999948
28.65,0.0729599999999948
28.66,0.0729599999999948
28.67,0.0729599999999948
28.68,0.0729599999999948
28.69,0.0729599999999948
28.70,0.0729599999999948
28.71,0.0729599999999948
28.72,0.0729599999999948
28.73,0.0729599999999948
28.74,0.0729599999999948
28.75,0.0729599999999948
28.76,0.0729599999999948
28.77,0.0729599999999948
28.78,0.0729599999999948
28.79,0.0729599999999948
28.80,0.0729599999999948
28.81,0.0729599999999948
28.82,0.0729599999999948
28.83,0.0729599999999948
28.84,-0.023040000000001726
28.85,-0.023040000000001726
28.86,-0.023040000000001726
28.87,-0.023040000000001726
28.88,-0.023040000000001726
28.89,-0.023040000000001726
28.90,-0.023040000000001726
28.91,-0.023040000000001726
28.92,-0.023040000000001726
28.93,-0.023040000000001726
28.94,0.0729599999999948
28.95,0.0729599999999948
28.96,0.0729599999999948
28.97,0.0729599999999948
28.98,0.0729599999999948
28.99,0.0729599999999948
29.00,0.0729599999999948
29.01,0.0729599999999948
29.03,0.0729599999999948
29.04,0.0729599999999948
29.05,0.0729599999999948
29.06,0.0729599999999948
29.07,0.0729599999999948
29.08,0.0729599999999948
29.09,0.0729599999999948
29.10,0.0729599999999948
29.11,0.0729599999999948
29.12,0.0729599999999948
29.13,0.0729599999999948
29.14,0.0729599999999948
29.15,0.0729599999999948
29.16,0.0729599999999948
29.17,0.0729599999999948
29.18,0.0729599999999948
29.19,0.0729599999999948
29.20,0.0729599999999948
29.21,0.0729599999999948
29.22,0.0729599999999948
29.23,0.0729599999999948
29.24,-0.023040000000001726
29.25,-0.023040000000001726
29.26,-0.023040000000001726
29.27,-0.023040000000001726
29.28,-0.023040000000001726
29.29,-0.023040000000001726
29.30,-0.023040000000001726
29.31,-0.023040000000001726
29.32,-0.023040000000001726
29.33,-0.023040000000001726
29.34,0.0729599999999948
29.35,0.0729599999999948
29.36,0.0729599999999948
29.37,0.0729599999999948
29.38,0.0729599999999948
29.39,0.0729599999999948
29.40,0.0729599999999948
29.42,0.0729599999999948
29.43,0.0729599999999948
29.44,0.0729599999999948
29.45,0.0729599999999948
29.46,0.0729599999999948
29.47,0.0729599999999948
29.48,0.0729599999999948
29.49,0.0729599999999948
29.50,0.0729599999999948
29.51,0.0729599999999948
29.52,0.0729599999999948
29.53,0.0729599999999948
29.54,0.0729599999999948
29.55,0.0729599999999948
29.56,0.0729599999999948
29.57,0.0729599999999948
29.58,0.0729599999999948
29.59,0.0729599999999948
29.60,0.0729599999999948
29.61,0.0729599999999948
29.62,0.0729599999999948
29.63,0.0729599999999948
29.64,0.0729599999999948
29.65,-0.023040000000001726
29.66,-0.023040000000001726
29.67,-0.023040000000001726
29.68,-0.023040000000001726
29.69,-0.023040000000001726
29.70,-0.023040000000001726
29.71,-0.023040000000001726
29.72,-0.023040000000001726
29.73,-0.023040000000001726
29.74,-0.023040000000001726
29.75,-0.023040000000001726
29.76,-0.023040000000001726
29.77,-0.023040000000001726
29.78,-0.023040000000001726
29.79,-0.023040000000001726
29.81,-0.023040000000001726
29.82,-0.023040000000001726
29.83,-0.023040000000001726
29.84,-0.023040000000001726
29.85,-0.023040000000001726
29.86,-0.023040000000001726
29.87,-0.023040000000001726
29.88,-0.023040000000001726
29.89,-0.023040000000001726
29.90,-0.023040000000001726
29.91,-0.023040000000001726
29.92,-0.023040000000001726
29.93,-0.023040000000001726
29.94,-0.023040000000001726
29.95,0.0729599999999948
29.96,0.0729599999999948
29.97,0.0729599999999948
29.98,0.0729599999999948
29.99,0.0729599999999948
30.00,0.0729599999999948
30.01,0.0729599999999948
30.02,0.0729599999999948
30.03,0.0729599999999948
30.04,0.0729599999999948
30.05,0.0729599999999948
30.06,0.0729599999999948
30.07,0.0729599999999948
30.08,0.0729599999999948
30.09,0.0729599999999948
30.10,0.0729599999999948
30.11,0.0729599999999948
30.12,0.0729599999999948
30.13,0.0729599999999948
30.14,0.0729599999999948
30.15,0.0729599999999948
30.16,0.0729599999999948
30.17,0.0729599999999948
30.18,0.0729599999999948
30.19,0.0729599999999948
30.21,0.0729599999999948
30.22,0.0729599999999948
30.23,0.0729599999999948
30.24,0.0729599999999948
30.25,0.0729599999999948
30.26,0.0729599999999948
30.27,0.0729599999999948
30.28,0.0729599999999948
30.29,0.0729599999999948
30.30,0.0729599999999948
30.31,0.0729599999999948
30.32,0.0729599999999948
30.33,0.0729599999999948
30.34,0.0729599999999948
30.35,0.0729599999999948
30.36,0.0729599999999948
30.37,0.0729599999999948
30.38,0.0729599999999948
30.39,0.0729599999999948
30.40,0.0729599999999948
30.41,0.0729599999999948
30.42,0.0729599999999948
30.43,0.0729599999999948
30.44,0.0729599999999948
30.45,-0.023040000000001726
30.46,-0.023040000000001726
30.47,-0.023040000000001726
30.48,-0.023040000000001726
30.49,-0.023040000000001726
30.50,-0.023040000000001726
30.51,-0.023040000000001726
30.52,-0.023040000000001726
30.53,-0.023040000000001726
30.54,-0.023040000000001726
30.55,-0.023040000000001726
30.56,-0.023040000000001726
30.57,-0.023040000000001726
30.58,-0.023040000000001726
30.59,-0.023040000000001726
30.61,-0.023040000000001726
30.62,-0.023040000000001726
30.63,-0.023040000000001726
30.64,-0.023040000000001726
30.65,0.0729599999999948
30.66,0.0729599999999948
30.67,0.0729599999999948
30.68,0.0729599999999948
30.69,0.0729599999999948
30.70,0.0729599999999948
30.71,0.0729599999999948
30.72,0.0729599999999948
30.73,0.0729599999999948
30.74,0.0729599999999948
30.75,0.0729599999999948
30.76,0.0729599999999948
30.77,0.0729599999999948
30.78,0.0729599999999948
30.79,0.0729599999999948
30.80,0.0729599999999948
30.81,0.0729599999999948
30.82,0.0729599999999948
30.83,0.0729599999999948
30.84,0.0729599999999948
30.85,-0.023040000000001726
30.86,-0.023040000000001726
30.87,-0.023040000000001726
30.88,-0.023040000000001726
30.89,-0.023040000000001726
30.90,-0.023040000000001726
30.91,-0.023040000000001726
30.92,-0.023040000000001726
30.93,-0.023040000000001726
30.94,-0.023040000000001726
30.95,-0.023040000000001726
30.96,-0.023040000000001726
30.97,-0.023040000000001726
30.99,-0.023040000000001726
31.00,-0.023040000000001726
31.01,-0.023040000000001726
31.02,-0.023040000000001726
31.03,-0.023040000000001726
31.04,-0.023040000000001726
31.05,-0.023040000000001726
31.06,-0.023040000000001726
31.07,-0.023040000000001726
31.08,-0.023040000000001726
31.09,-0.023040000000001726
31.10,-0.023040000000001726
31.11,-0.023040000000001726
31.12,-0.023040000000001726
31.13,-0.023040000000001726
31.14,-0.023040000000001726
31.15,-0.023040000000001726
31.16,-0.023040000000001726
31.17,-0.023040000000001726
31.18,-0.023040000000001726
31.19,-0.023040000000001726
31.20,-0.023040000000001726
31.21,-0.023040000000001726
31.22,-0.023040000000001726
31.23,-0.023040000000001726
31.24,-0.023040000000001726
31.25,-0.023040000000001726
31.26,-0.023040000000001726
31.27,-0.023040000000001726
31.28,-0.023040000000001726
31.29,-0.023040000000001726
31.30,-0.023040000000001726
31.31,-0.023040000000001726
31.32,-0.023040000000001726
31.33,-0.023040000000001726
31.34,-0.023040000000001726
31.35,-0.023040000000001726
31.36,-0.023040000000001726
31.38,-0.023040000000001726
31.39,-0.023040000000001726
31.40,-0.023040000000001726
31.41,-0.023040000000001726
31.42,-0.023040000000001726
31.43,-0.023040000000001726
31.44,-0.023040000000001726
31.45,0.0729599999999948
31.46,0.0729599999999948
31.47,0.0729599999999948
31.48,0.0729599999999948
31.49,0.0729599999999948
31.50,0.0729599999999948
31.51,0.0729599999999948
31.52,0.0729599999999948
31.53,0.0729599999999948
31.54,0.0729599999999948
31.55,-0.023040000000001726
31.56,-0.023040000000001726
31.57,-0.023040000000001726
31.58,-0.023040000000001726
31.59,-0.023040000000001726
31.60,-0.023040000000001726
31.61,-0.023040000000001726
31.62,-0.023040000000001726
31.63,-0.023040000000001726
31.64,-0.023040000000001726
31.65,0.0729599999999948
31.66,0.0729599999999948
31.67,0.0729599999999948
31.68,0.0729599999999948
31.69,0.0729599999999948
31.70,0.0729599999999948
31.71,0.0729599999999948
31.72,0.0729599999999948
31.73,0.0729599999999948
31.74,-0.023040000000001726
31.75,-0.023040000000001726
31.76,-0.023040000000001726
31.78,-0.023040000000001726
31.79,-0.023040000000001726
31.80,-0.023040000000001726
31.81,-0.023040000000001726
31.82,-0.023040000000001726
31.83,-0.023040000000001726
31.84,-0.023040000000001726
31.85,-0.023040000000001726
31.86,-0.023040000000001726
31.87,-0.023040000000001726
31.88,-0.023040000000001726
31.89,-0.023040000000001726
31.90,-0.023040000000001726
31.91,-0.023040000000001726
31.92,-0.023040000000001726
31.93,-0.023040000000001726
31.94,-0.023040000000001726
31.95,-0.023040000000001726
31.96,-0.023040000000001726
31.97,-0.023040000000001726
31.98,-0.023040000000001726
31.99,-0.023040000000001726
32.00,-0.023040000000001726
32.01,-0.023040000000001726
32.02,-0.023040000000001726
32.03,-0.023040000000001726
32.04,-0.023040000000001726
32.05,-0.023040000000001726
32.06,-0.023040000000001726
32.07,-0.023040000000001726
32.08,-0.023040000000001726
32.09,-0.023040000000001726
32.10,-0.023040000000001726
32.11,-0.023040000000001726
32.12,-0.023040000000001726
32.13,-0.023040000000001726
32.14,-0.023040000000001726
32.15,-0.023040000000001726
32.17,-0.023040000000001726
32.18,-0.023040000000001726
32.19,-0.023040000000001726
32.20,-0.023040000000001726
32.21,-0.023040000000001726
32.22,-0.023040000000001726
32.23,-0.023040000000001726
32.24,-0.023040000000001726
32.25,-0.023040000000001726
32.26,-0.023040000000001726
32.27,-0.023040000000001726
32.28,-0.023040000000001726
32.29,-0.023040000000001726
32.30,-0.023040000000001726
32.31,-0.023040000000001726
32.32,-0.023040000000001726
32.33,-0.023040000000001726
32.34,-0.023040000000001726
32.35,-0.023040000000001726
32.36,-0.023040000000001726
32.37,-0.023040000000001726
32.38,-0.023040000000001726
32.39,-0.023040000000001726
32.40,-0.023040000000001726
32.41,-0.023040000000001726
32.42,-0.023040000000001726
32.43,-0.023040000000001726
32.44,-0.023040000000001726
32.45,-0.023040000000001726
32.46,-0.023040000000001726
32.47,-0.023040000000001726
32.48,-0.023040000000001726
32.49,-0.023040000000001726
32.50,-0.023040000000001726
32.51,-0.023040000000001726
32.52,-0.023040000000001726
32.53,-0.023040000000001726
32.55,0.0729599999999948
32.56,0.0729599999999948
32.57,0.0729599999999948
32.58,0.0729599999999948
32.59,0.0729599999999948
32.60,0.0729599999999948
32.61,0.0729599999999948
32.62,0.0729599999999948
32.63,0.0729599999999948
32.64,0.0729599999999948
32.65,-0.023040000000001726
32.66,-0.023040000000001726
32.67,-0.023040000000001726
32.68,-0.023040000000001726
32.69,-0.023040000000001726
32.70,-0.023040000000001726
32.71,-0.023040000000001726
32.72,-0.023040000000001726
32.73,-0.023040000000001726
32.74,-0.023040000000001726
32.75,-0.023040000000001726
32.76,-0.023040000000001726
32.77,-0.023040000000001726
32.78,-0.023040000000001726
32.79,-0.023040000000001726
32.80,-0.023040000000001726
32.81,-0.023040000000001726
32.82,-0.023040000000001726
32.83,-0.023040000000001726
32.84,-0.023040000000001726
32.85,-0.023040000000001726
32.86,-0.023040000000001726
32.87,-0.023040000000001726
32.88,-0.023040000000001726
32.89,-0.023040000000001726
32.90,-0.023040000000001726
32.91,-0.023040000000001726
32.92,-0.023040000000001726
32.93,-0.023040000000001726
32.95,0.0729599999999948
32.96,0.0729599999999948
32.97,0.0729599999999948
32.98,0.0729599999999948
32.99,0.0729599999999948
33.00,0.0729599999999948
33.01,0.0729599999999948
33.02,0.0729599999999948
33.03,0.0729599999999948
33.04,0.0729599999999948
33.05,-0.023040000000001726
33.06,-0.023040000000001726
33.07,-0.023040000000001726
33.08,-0.023040000000001726
33.09,-0.023040000000001726
33.10,-0.023040000000001726
33.11,-0.023040000000001726
33.12,-0.023040000000001726
33.13,-0.023040000000001726
33.14,-0.023040000000001726
33.15,-0.023040000000001726
33.16,-0.023040000000001726
33.17,-0.023040000000001726
33.18,-0.023040000000001726
33.19,-0.023040000000001726
33.20,-0.023040000000001726
33.21,-0.023040000000001726
33.22,-0.023040000000001726
33.23,-0.023040000000001726
33.24,-0.023040000000001726
33.25,-0.023040000000001726
33.26,-0.023040000000001726
33.27,-0.023040000000001726
33.28,-0.023040000000001726
33.29,-0.023040000000001726
33.30,-0.023040000000001726
33.31,-0.023040000000001726
33.32,-0.023040000000001726
33.33,-0.023040000000001726
33.35,-0.023040000000001726
33.36,-0.023040000000001726
33.37,-0.023040000000001726
33.38,-0.023040000000001726
33.39,-0.023040000000001726
33.40,-0.023040000000001726
33.41,-0.023040000000001726
33.42,-0.023040000000001726
33.43,-0.023040000000001726
33.44,-0.023040000000001726
33.45,-0.023040000000001726
33.46,-0.023040000000001726
33.47,-0.023040000000001726
33.48,-0.023040000000001726
33.49,-0.023040000000001726
33.50,-0.023040000000001726
33.51,-0.023040000000001726
33.52,-0.023040000000001726
33.53,-0.023040000000001726
33.54,-0.023040000000001726
33.55,-0.023040000000001726
33.56,-0.023040000000001726
33.57,-0.023040000000001726
33.58,-0.023040000000001726
